# scan = 13
# date = 9/9/2024
# time = 4:14:04 PM
# proposal = 34735
# experiment = Magnons and paramagnon coupling in MnTe
# experiment_number = 813
# command = th2th 3 -3 0.3
# builtin_command = scan s2 @(s2)+3 @(s2)+-3 0.300000 s1 @(s1)+(3/2) @(s1)+(-3/2) 0.150000
# users = Benjamin Frandsen, Songxue Chi, George Yumnam, Huibo Cao, Michael Manley, Raphael Hermann, Eleanor Clements
# local_contact = Eleanor Clements
# scan_title = check 100 low T th2th
# monochromator = PG002
# analyzer = Pg002
# sense = -+-
# collimation = 48-40-40-120
# samplename = MnTe
# sampletype = crystal
# samplemosaic = 30.000000
# latticeconstants = 4.118479,4.118479,6.706600,90.000000,90.000000,120.000000
# ubmatrix = -0.000478,-0.000242,-0.149107,-0.280370,-0.140183,0.000254,0.000002,0.242809,-0.000002
# mode = 0
# plane_normal = -0.000013,0.000009,1.000000
# ubconf = UB09Sep2024_31036PM.ini
# preset_type = normal 
# preset_channel = time
# preset_value = 1.000000
# def_x = s2
# def_y = detector
# col_headers = 
#   Pt.         s2         s1       time   detector    monitor        mcu focal_length         m1         m2   mcrystal       marc     mtrans     mfocus       ampl         dc       freq     output       temp     temp_2        sgl        sgu        bbb        bbl        bbr        bbt        bab        bal        bar        bat        stl        stu         a1         a2          q          h          k          l         ei         ef          e   ampl_out output_state        vti     sample
      1    41.6233   -69.0747      1.000      8.000   2549.000      0.394    66.7975   -20.0773   -41.1657   120.0962    -0.1480    -3.0001   -34.2897     0.0000     0.0000     0.0000     1.0000     5.0000   300.0000     1.0010    -3.0008    20.0000    30.0000    30.0000    20.0000    26.0000    30.0000    30.0000    20.0000    -0.0005     0.0005   159.4164   -41.1662     1.8927     1.1054    -0.0650     0.0005    14.7003    14.7000     0.0003     2.0000     1.0000     4.9989     0.000
      2    41.3247   -69.2251      1.000      6.000   2518.000      0.389    66.7975   -20.0773   -41.1657   120.0962    -0.1480    -3.0001   -34.2897     0.0000     0.0000     0.0000     1.0000     5.0000   300.0000     1.0010    -3.0008    20.0000    30.0000    30.0000    20.0000    26.0000    30.0000    30.0000    20.0000    -0.0005     0.0005   159.4164   -41.1662     1.8797     1.0978    -0.0646     0.0005    14.7003    14.7000     0.0003     2.0000     1.0000     5.0015     0.000
      3    41.0241   -69.3753      1.000      6.000   2495.000      0.385    66.7975   -20.0773   -41.1657   120.0962    -0.1480    -3.0001   -34.2897     0.0000     0.0000     0.0000     1.0000     5.0000   300.0000     1.0010    -3.0008    20.0000    30.0000    30.0000    20.0000    26.0000    30.0000    30.0000    20.0000    -0.0005     0.0005   159.4164   -41.1662     1.8666     1.0902    -0.0641     0.0005    14.7003    14.7000     0.0003     2.0000     1.0000     5.0001     0.000
      4    40.7251   -69.5250      1.000      6.000   2532.000      0.391    66.7975   -20.0773   -41.1657   120.0962    -0.1480    -3.0001   -34.2897     0.0000     0.0000     0.0000     1.0000     5.0000   300.0000     1.0010    -3.0008    20.0000    30.0000    30.0000    20.0000    26.0000    30.0000    30.0000    20.0000    -0.0005     0.0005   159.4164   -41.1662     1.8536     1.0826    -0.0637     0.0005    14.7003    14.7000     0.0003     2.0000     1.0000     5.0000     0.000
      5    40.4198   -69.6753      1.000      9.000   2528.000      0.390    66.7975   -20.0773   -41.1657   120.0962    -0.1480    -3.0001   -34.2897     0.0000     0.0000     0.0000     1.0000     5.0000   300.0000     1.0010    -3.0008    20.0000    30.0000    30.0000    20.0000    26.0000    30.0000    30.0000    20.0000    -0.0005     0.0005   159.4164   -41.1662     1.8403     1.0748    -0.0632     0.0006    14.7003    14.7000     0.0003     2.0000     1.0000     5.0000     0.000
      6    40.1263   -69.8249      1.000      4.000   2529.000      0.390    66.7975   -20.0773   -41.1657   120.0962    -0.1480    -3.0001   -34.2897     0.0000     0.0000     0.0000     1.0000     5.0000   300.0000     1.0010    -3.0008    20.0000    30.0000    30.0000    20.0000    26.0000    30.0000    30.0000    20.0000    -0.0005     0.0005   159.4164   -41.1662     1.8275     1.0673    -0.0628     0.0005    14.7003    14.7000     0.0003     2.0000     1.0000     5.0009     0.000
      7    39.8210   -69.9754      1.000     10.000   2632.000      0.406    66.7975   -20.0773   -41.1657   120.0962    -0.1480    -3.0001   -34.2897     0.0000     0.0000     0.0000     1.0000     5.0000   300.0000     1.0010    -3.0008    20.0000    30.0000    30.0000    20.0000    26.0000    30.0000    30.0000    20.0000    -0.0005     0.0005   159.4164   -41.1662     1.8141     1.0595    -0.0623     0.0005    14.7003    14.7000     0.0003     2.0000     1.0000     5.0001     0.000
      8    39.5245   -70.1250      1.000     19.000   2463.000      0.380    66.7975   -20.0773   -41.1657   120.0962    -0.1480    -3.0001   -34.2897     0.0000     0.0000     0.0000     1.0000     5.0000   300.0000     1.0010    -3.0008    20.0000    30.0000    30.0000    20.0000    26.0000    30.0000    30.0000    20.0000    -0.0005     0.0005   159.4164   -41.1662     1.8012     1.0520    -0.0619     0.0005    14.7003    14.7000     0.0003     2.0000     1.0000     4.9994     0.000
      9    39.2225   -70.2752      1.000    339.000   2565.000      0.396    66.7975   -20.0773   -41.1657   120.0962    -0.1480    -3.0001   -34.2897     0.0000     0.0000     0.0000     1.0000     5.0000   300.0000     1.0010    -3.0008    20.0000    30.0000    30.0000    20.0000    26.0000    30.0000    30.0000    20.0000    -0.0005     0.0005   159.4164   -41.1662     1.7879     1.0442    -0.0614     0.0005    14.7003    14.7000     0.0003     2.0000     1.0000     5.0004     0.000
     10    38.9259   -70.4249      1.000   2862.000   2528.000      0.390    66.7975   -20.0773   -41.1657   120.0962    -0.1480    -3.0001   -34.2897     0.0000     0.0000     0.0000     1.0000     5.0000   300.0000     1.0010    -3.0008    20.0000    30.0000    30.0000    20.0000    26.0000    30.0000    30.0000    20.0000    -0.0005     0.0005   159.4164   -41.1662     1.7749     1.0367    -0.0610     0.0005    14.7003    14.7000     0.0003     2.0000     1.0000     5.0014     0.000
     11    38.6182   -70.5754      1.000   7822.000   2575.000      0.398    66.7975   -20.0773   -41.1657   120.0962    -0.1480    -3.0001   -34.2897     0.0000     0.0000     0.0000     1.0000     5.0000   300.0000     1.0010    -3.0008    20.0000    30.0000    30.0000    20.0000    26.0000    30.0000    30.0000    20.0000    -0.0005     0.0005   159.4164   -41.1662     1.7615     1.0288    -0.0605     0.0006    14.7003    14.7000     0.0003     2.0000     1.0000     4.9998     0.000
     12    38.3245   -70.7250      1.000   6237.000   2552.000      0.394    66.7975   -20.0773   -41.1657   120.0962    -0.1480    -3.0001   -34.2897     0.0000     0.0000     0.0000     1.0000     5.0000   300.0000     1.0010    -3.0008    20.0000    30.0000    30.0000    20.0000    26.0000    30.0000    30.0000    20.0000    -0.0005     0.0005   159.4164   -41.1662     1.7486     1.0212    -0.0600     0.0005    14.7003    14.7000     0.0003     2.0000     1.0000     5.0007     0.000
     13    38.0222   -70.8753      1.000   1622.000   2370.000      0.366    66.7975   -20.0773   -41.1657   120.0962    -0.1480    -3.0001   -34.2897     0.0000     0.0000     0.0000     1.0000     5.0000   300.0000     1.0010    -3.0008    20.0000    30.0000    30.0000    20.0000    26.0000    30.0000    30.0000    20.0000    -0.0005     0.0005   159.4164   -41.1662     1.7353     1.0135    -0.0596     0.0005    14.7003    14.7000     0.0003     2.0000     1.0000     4.9992     0.000
     14    37.7253   -71.0249      1.000    118.000   2481.000      0.383    66.7975   -20.0773   -41.1657   120.0962    -0.1480    -3.0001   -34.2897     0.0000     0.0000     0.0000     1.0000     5.0000   300.0000     1.0010    -3.0008    20.0000    30.0000    30.0000    20.0000    26.0000    30.0000    30.0000    20.0000    -0.0005     0.0005   159.4164   -41.1662     1.7222     1.0059    -0.0591     0.0005    14.7003    14.7000     0.0003     2.0000     1.0000     4.9998     0.000
     15    37.4220   -71.1754      1.000      8.000   2496.000      0.385    66.7975   -20.0773   -41.1657   120.0962    -0.1480    -3.0001   -34.2897     0.0000     0.0000     0.0000     1.0000     5.0000   300.0000     1.0010    -3.0008    20.0000    30.0000    30.0000    20.0000    26.0000    30.0000    30.0000    20.0000    -0.0005     0.0005   159.4164   -41.1662     1.7089     0.9981    -0.0587     0.0005    14.7003    14.7000     0.0003     2.0000     1.0000     5.0009     0.000
     16    37.1269   -71.3249      1.000      8.000   2592.000      0.400    66.7975   -20.0773   -41.1657   120.0962    -0.1480    -3.0001   -34.2897     0.0000     0.0000     0.0000     1.0000     5.0000   300.0000     1.0010    -3.0008    20.0000    30.0000    30.0000    20.0000    26.0000    30.0000    30.0000    20.0000    -0.0005     0.0005   159.4164   -41.1662     1.6959     0.9905    -0.0582     0.0004    14.7003    14.7000     0.0003     2.0000     1.0000     4.9990     0.000
     17    36.8216   -71.4754      1.000      7.000   2537.000      0.392    66.7975   -20.0773   -41.1657   120.0962    -0.1480    -3.0001   -34.2897     0.0000     0.0000     0.0000     1.0000     5.0000   300.0000     1.0010    -3.0008    20.0000    30.0000    30.0000    20.0000    26.0000    30.0000    30.0000    20.0000    -0.0005     0.0005   159.4164   -41.1662     1.6824     0.9826    -0.0578     0.0005    14.7003    14.7000     0.0003     2.0000     1.0000     5.0000     0.000
     18    36.5239   -71.6249      1.000      5.000   2562.000      0.396    66.7975   -20.0773   -41.1657   120.0962    -0.1480    -3.0001   -34.2897     0.0000     0.0000     0.0000     1.0000     5.0000   300.0000     1.0010    -3.0008    20.0000    30.0000    30.0000    20.0000    26.0000    30.0000    30.0000    20.0000    -0.0005     0.0005   159.4164   -41.1662     1.6693     0.9749    -0.0573     0.0005    14.7003    14.7000     0.0003     2.0000     1.0000     4.9996     0.000
     19    36.2212   -71.7754      1.000      5.000   2448.000      0.378    66.7975   -20.0773   -41.1657   120.0962    -0.1480    -3.0001   -34.2897     0.0000     0.0000     0.0000     1.0000     5.0000   300.0000     1.0010    -3.0008    20.0000    30.0000    30.0000    20.0000    26.0000    30.0000    30.0000    20.0000    -0.0005     0.0005   159.4164   -41.1662     1.6559     0.9671    -0.0569     0.0005    14.7003    14.7000     0.0003     2.0000     1.0000     5.0002     0.000
     20    35.9257   -71.9249      1.000      9.000   2451.000      0.378    66.7975   -20.0773   -41.1657   120.0962    -0.1480    -3.0001   -34.2897     0.0000     0.0000     0.0000     1.0000     5.0000   300.0000     1.0010    -3.0008    20.0000    30.0000    30.0000    20.0000    26.0000    30.0000    30.0000    20.0000    -0.0005     0.0005   159.4164   -41.1662     1.6429     0.9595    -0.0564     0.0004    14.7003    14.7000     0.0003     2.0000     1.0000     4.9997     0.000
     21    35.6206   -72.0752      1.000      3.000   2491.000      0.385    66.7975   -20.0773   -41.1657   120.0962    -0.1480    -3.0001   -34.2897     0.0000     0.0000     0.0000     1.0000     5.0000   300.0000     1.0010    -3.0008    20.0000    30.0000    30.0000    20.0000    26.0000    30.0000    30.0000    20.0000    -0.0005     0.0005   159.4164   -41.1662     1.6294     0.9516    -0.0560     0.0005    14.7003    14.7000     0.0003     2.0000     1.0000     4.9996     0.000
# Sum of Counts = 19113
# Center of Mass = 38.524583+/-0.394090
# Full Width Half-Maximum = 0.626611+/-0.268134
# 4:15:54 PM  9/9/2024   scan completed.
