# scan = 96
# date = 9/12/2024
# time = 9:49:12 AM
# proposal = 34735
# experiment = Magnons and paramagnon coupling in MnTe
# experiment_number = 813
# command = scan h 1.425 k 0.0 l 1.425 e 30.75 9 0.25 ef 14.7 preset mcu 60
# builtin_command = scan h 1.425 k 0.0 l 1.425 e 30.75 9 0.25 ef 14.7 preset mcu 60
# users = Benjamin Frandsen, Songxue Chi, George Yumnam, Huibo Cao, Michael Manley, Raphael Hermann, Eleanor Clements
# local_contact = Eleanor Clements
# scan_title = H0L scans along (101) to (1.5, 0, 0.5) at H/L = 1.425, mcu = 60, E = 31 to 9 mev
# monochromator = PG002
# analyzer = Pg002
# sense = -+-
# collimation = 48-40-40-120
# samplename = MnTe
# sampletype = crystal
# samplemosaic = 30.000000
# latticeconstants = 4.128474,4.128474,6.651507,90.000000,90.000000,120.000000
# ubmatrix = -0.000328,-0.004396,-0.150319,-0.279308,-0.152332,0.000314,-0.014647,0.234528,-0.002614
# mode = 0
# plane_normal = -0.017470,-0.052341,0.998476
# ubconf = UB09Sep2024_43441PM.ini
# preset_type = normal 
# preset_channel = mcu
# preset_value = 60.000000
# def_x = e
# def_y = detector
# col_headers = 
#   Pt.          h          k          l          e         ef       time   detector    monitor        mcu focal_length         m1         m2   mcrystal       marc     mtrans     mfocus       ampl         dc       freq     output       temp     temp_2         s1         s2        sgl        sgu        bbb        bbl        bbr        bbt        bab        bal        bar        bat        stl        stu         a1         a2          q         ei   ampl_out output_state        vti     sample
      1     1.4250     0.0000     1.4250    30.7505    14.7000     44.573      9.000 150721.000     60.000    37.9885   -20.0773   -23.0667   120.0962    -0.1480    -3.0001   -62.8152     0.0000     0.0000     0.0000     1.0000     5.0000   300.0000    -2.2695    32.9084     1.0010    -2.9998     9.0000    10.0000     5.0000    14.0000    16.0000     5.0000    10.0000    16.0000    -0.0005     0.0005   159.4167   -41.1662     2.8431    45.4505     2.0000     1.0000     4.9992     0.000
      2     1.4250     0.0000     1.4251    30.4999    14.7000     44.431      5.000 150721.000     60.000    38.0934   -20.0773   -23.1314   120.0962    -0.1480    -3.0001   -62.6255     0.0000     0.0000     0.0000     1.0000     5.0000   300.0000    -2.5122    33.1779     1.0010    -2.9998     9.0000    10.0000     5.0000    14.0000    16.0000     5.0000    10.0000    16.0000    -0.0005     0.0005   159.4167   -41.1662     2.8432    45.1999     2.0000     1.0000     5.0006     0.000
      3     1.4250     0.0000     1.4250    30.2510    14.7000     44.127      3.000 150721.000     60.000    38.1992   -20.0773   -23.1963   120.0962    -0.1480    -3.0001   -62.4354     0.0000     0.0000     0.0000     1.0000     5.0000   300.0000    -2.7544    33.4405     1.0010    -2.9998     9.0000    10.0000     5.0000    14.0000    16.0000     5.0000    10.0000    16.0000    -0.0005     0.0005   159.4167   -41.1662     2.8432    44.9510     2.0000     1.0000     5.0003     0.000
      4     1.4250     0.0000     1.4250    29.9997    14.7000     44.114      7.000 150721.000     60.000    38.3059   -20.0773   -23.2623   120.0962    -0.1480    -3.0001   -62.2448     0.0000     0.0000     0.0000     1.0000     5.0000   300.0000    -2.9946    33.7033     1.0010    -2.9998     9.0000    10.0000     5.0000    14.0000    16.0000     5.0000    10.0000    16.0000    -0.0005     0.0005   159.4167   -41.1662     2.8431    44.6997     2.0000     1.0000     4.9992     0.000
      5     1.4250     0.0000     1.4250    29.7495    14.7000     43.900      9.000 150721.000     60.000    38.4134   -20.0773   -23.3286   120.0962    -0.1480    -3.0001   -62.0538     0.0000     0.0000     0.0000     1.0000     5.0000   300.0000    -3.2346    33.9666     1.0010    -2.9998     9.0000    10.0000     5.0000    14.0000    16.0000     5.0000    10.0000    16.0000    -0.0005     0.0005   159.4167   -41.1662     2.8431    44.4495     2.0000     1.0000     4.9997     0.000
      6     1.4250     0.0000     1.4250    29.5002    14.7000     43.965      3.000 150721.000     60.000    38.5219   -20.0773   -23.3952   120.0962    -0.1480    -3.0001   -61.8623     0.0000     0.0000     0.0000     1.0000     5.0000   300.0000    -3.4733    34.2281     1.0010    -2.9998     9.0000    10.0000     5.0000    14.0000    16.0000     5.0000    10.0000    16.0000    -0.0005     0.0005   159.4167   -41.1662     2.8431    44.2002     2.0000     1.0000     5.0000     0.000
      7     1.4250     0.0000     1.4250    29.2505    14.7000      0.000      0.000      0.000     60.000    38.6313   -20.0773   -23.4625   120.0962    -0.1480    -3.0001   -61.6704     0.0000     0.0000     0.0000     1.0000     5.0000   300.0000    -3.7107    34.4879     1.0010    -2.9998     9.0000    10.0000     5.0000    14.0000    16.0000     5.0000    10.0000    16.0000    -0.0005     0.0005   159.4167   -41.1662     2.8431    43.9505     2.0000     1.0000     4.9994     0.000
# Sum of Counts = 36
# Center of Mass = 30.173639+/-7.112360
# Full Width Half-Maximum = 0.865158+/-6.447346
# 9:55:28 AM  9/12/2024   scan stopped!!
