# scan = 84
# date = 9/11/2024
# time = 8:03:44 PM
# proposal = 34735
# experiment = Magnons and paramagnon coupling in MnTe
# experiment_number = 813
# command = scan h 1.1 k 0.0 l 1.1 e 34 24.25 0.25 ef 14.7 preset mcu 60
# builtin_command = scan h 1.1 k 0.0 l 1.1 e 34 24.25 0.25 ef 14.7 preset mcu 60
# users = Benjamin Frandsen, Songxue Chi, George Yumnam, Huibo Cao, Michael Manley, Raphael Hermann, Eleanor Clements
# local_contact = Eleanor Clements
# scan_title = H0L scans along (101) to (1.5, 0, 1.5) at H/L = 1.1, mcu = 60 (higher e)
# monochromator = PG002
# analyzer = Pg002
# sense = -+-
# collimation = 48-40-40-120
# samplename = MnTe
# sampletype = crystal
# samplemosaic = 30.000000
# latticeconstants = 4.128474,4.128474,6.651507,90.000000,90.000000,120.000000
# ubmatrix = -0.000328,-0.004396,-0.150319,-0.279308,-0.152332,0.000314,-0.014647,0.234528,-0.002614
# mode = 0
# plane_normal = -0.017470,-0.052341,0.998476
# ubconf = UB09Sep2024_43441PM.ini
# preset_type = normal 
# preset_channel = mcu
# preset_value = 60.000000
# def_x = e
# def_y = detector
# col_headers = 
#   Pt.          h          k          l          e         ef       time   detector    monitor        mcu focal_length         m1         m2   mcrystal       marc     mtrans     mfocus       ampl         dc       freq     output       temp     temp_2         s1         s2        sgl        sgu        bbb        bbl        bbr        bbt        bab        bal        bar        bat        stl        stu         a1         a2          q         ei   ampl_out output_state        vti     sample
      1     1.1001     0.0000     1.0999    34.0026    14.7000     48.075     24.000 150721.000     60.000    36.6990   -20.0773   -22.2731   120.0962    -0.1480    -3.0001   -65.2446     0.0000     0.0000     0.0000     1.0000     5.0000   300.0000    24.2311     3.3712     1.0010    -2.9998     9.0000    10.0000     5.0000    14.0000    16.0000     5.0000    10.0000    16.0000    -0.0005     0.0005   159.4167   -41.1662     2.1948    48.7026     2.0000     1.0000     4.9998     0.000
      2     1.1000     0.0000     1.1000    33.7501    14.7000     47.237      8.000 150721.000     60.000    36.7936   -20.0773   -22.3318   120.0962    -0.1480    -3.0001   -65.0601     0.0000     0.0000     0.0000     1.0000     5.0000   300.0000    22.2236     5.0255     1.0010    -2.9998     9.0000    10.0000     5.0000    14.0000    16.0000     5.0000    10.0000    16.0000    -0.0005     0.0005   159.4167   -41.1662     2.1947    48.4501     2.0000     1.0000     5.0003     0.000
      3     1.1000     0.0000     1.1000    33.5004    14.7000     46.832      5.000 150721.000     60.000    36.8889   -20.0773   -22.3903   120.0962    -0.1480    -3.0001   -64.8752     0.0000     0.0000     0.0000     1.0000     5.0000   300.0000    20.7234     6.2590     1.0010    -2.9998     9.0000    10.0000     5.0000    14.0000    16.0000     5.0000    10.0000    16.0000    -0.0005     0.0005   159.4167   -41.1662     2.1947    48.2004     2.0000     1.0000     5.0013     0.000
      4     1.1000     0.0000     1.1000    33.2499    14.7000     46.618      7.000 150721.000     60.000    36.9849   -20.0773   -22.4494   120.0962    -0.1480    -3.0001   -64.6899     0.0000     0.0000     0.0000     1.0000     5.0000   300.0000    19.4691     7.2889     1.0010    -2.9998     9.0000    10.0000     5.0000    14.0000    16.0000     5.0000    10.0000    16.0000    -0.0005     0.0005   159.4167   -41.1662     2.1947    47.9499     2.0000     1.0000     4.9997     0.000
      5     1.1000     0.0000     1.1002    33.0001    14.7000     46.137      6.000 150721.000     60.000    37.0817   -20.0773   -22.5089   120.0962    -0.1480    -3.0001   -64.5042     0.0000     0.0000     0.0000     1.0000     5.0000   300.0000    18.3676     8.1964     1.0010    -2.9998     9.0000    10.0000     5.0000    14.0000    16.0000     5.0000    10.0000    16.0000    -0.0005     0.0005   159.4167   -41.1662     2.1947    47.7001     2.0000     1.0000     5.0001     0.000
      6     1.1000     0.0000     1.1001    32.7489    14.7000     46.198      8.000 150721.000     60.000    37.1793   -20.0773   -22.5692   120.0962    -0.1480    -3.0001   -64.3182     0.0000     0.0000     0.0000     1.0000     5.0000   300.0000    17.3723     9.0103     1.0010    -2.9998     9.0000    10.0000     5.0000    14.0000    16.0000     5.0000    10.0000    16.0000    -0.0005     0.0005   159.4167   -41.1662     2.1946    47.4489     2.0000     1.0000     4.9999     0.000
      7     1.1000     0.0000     1.1001    32.5008    14.7000     45.781      5.000 150721.000     60.000    37.2776   -20.0773   -22.6292   120.0962    -0.1480    -3.0001   -64.1317     0.0000     0.0000     0.0000     1.0000     5.0000   300.0000    16.4561     9.7605     1.0010    -2.9998     9.0000    10.0000     5.0000    14.0000    16.0000     5.0000    10.0000    16.0000    -0.0005     0.0005   159.4167   -41.1662     2.1947    47.2008     2.0000     1.0000     4.9997     0.000
      8     1.1000     0.0000     1.1000    32.2499    14.7000     45.818      2.000 150721.000     60.000    37.3767   -20.0773   -22.6904   120.0962    -0.1480    -3.0001   -63.9448     0.0000     0.0000     0.0000     1.0000     5.0000   300.0000    15.6030    10.4554     1.0010    -2.9998     9.0000    10.0000     5.0000    14.0000    16.0000     5.0000    10.0000    16.0000    -0.0005     0.0005   159.4167   -41.1662     2.1946    46.9499     2.0000     1.0000     4.9999     0.000
      9     1.1000     0.0000     1.1001    31.9998    14.7000     45.721     11.000 150721.000     60.000    37.4766   -20.0773   -22.7519   120.0962    -0.1480    -3.0001   -63.7576     0.0000     0.0000     0.0000     1.0000     5.0000   300.0000    14.8000    11.1129     1.0010    -2.9998     9.0000    10.0000     5.0000    14.0000    16.0000     5.0000    10.0000    16.0000    -0.0005     0.0005   159.4167   -41.1662     2.1947    46.6998     2.0000     1.0000     5.0004     0.000
     10     1.1000     0.0000     1.1000    31.7500    14.7000     45.529      9.000 150721.000     60.000    37.5773   -20.0773   -22.8138   120.0962    -0.1480    -3.0001   -63.5699     0.0000     0.0000     0.0000     1.0000     5.0000   300.0000    14.0388    11.7340     1.0010    -2.9998     9.0000    10.0000     5.0000    14.0000    16.0000     5.0000    10.0000    16.0000    -0.0005     0.0005   159.4167   -41.1662     2.1947    46.4500     2.0000     1.0000     4.9995     0.000
     11     1.1000     0.0000     1.1001    31.5005    14.7000     45.248      7.000 150721.000     60.000    37.6789   -20.0773   -22.8762   120.0962    -0.1480    -3.0001   -63.3819     0.0000     0.0000     0.0000     1.0000     5.0000   300.0000    13.3133    12.3257     1.0010    -2.9998     9.0000    10.0000     5.0000    14.0000    16.0000     5.0000    10.0000    16.0000    -0.0005     0.0005   159.4167   -41.1662     2.1947    46.2005     2.0000     1.0000     5.0000     0.000
     12     1.1000     0.0000     1.1000    31.2496    14.7000     45.195      7.000 150721.000     60.000    37.7812   -20.0773   -22.9394   120.0962    -0.1480    -3.0001   -63.1934     0.0000     0.0000     0.0000     1.0000     5.0000   300.0000    12.6182    12.8899     1.0010    -2.9998     9.0000    10.0000     5.0000    14.0000    16.0000     5.0000    10.0000    16.0000    -0.0005     0.0005   159.4167   -41.1662     2.1946    45.9496     2.0000     1.0000     5.0001     0.000
     13     1.1000     0.0000     1.1000    30.9994    14.7000     44.920     11.000 150721.000     60.000    37.8844   -20.0773   -23.0029   120.0962    -0.1480    -3.0001   -63.0045     0.0000     0.0000     0.0000     1.0000     5.0000   300.0000    11.9500    13.4332     1.0010    -2.9998     9.0000    10.0000     5.0000    14.0000    16.0000     5.0000    10.0000    16.0000    -0.0005     0.0005   159.4167   -41.1662     2.1946    45.6994     2.0000     1.0000     5.0005     0.000
     14     1.1000     0.0000     1.1001    30.7507    14.7000     44.368     10.000 150721.000     60.000    37.9885   -20.0773   -23.0667   120.0962    -0.1480    -3.0001   -62.8152     0.0000     0.0000     0.0000     1.0000     5.0000   300.0000    11.3050    13.9588     1.0010    -2.9998     9.0000    10.0000     5.0000    14.0000    16.0000     5.0000    10.0000    16.0000    -0.0005     0.0005   159.4167   -41.1662     2.1947    45.4507     2.0000     1.0000     5.0001     0.000
     15     1.1000     0.0000     1.1000    30.4995    14.7000     44.454     11.000 150721.000     60.000    38.0934   -20.0773   -23.1315   120.0962    -0.1480    -3.0001   -62.6255     0.0000     0.0000     0.0000     1.0000     5.0000   300.0000    10.6809    14.4637     1.0010    -2.9998     9.0000    10.0000     5.0000    14.0000    16.0000     5.0000    10.0000    16.0000    -0.0005     0.0005   159.4167   -41.1662     2.1946    45.1995     2.0000     1.0000     5.0004     0.000
     16     1.1000     0.0000     1.1001    30.2510    14.7000     44.035      5.000 150721.000     60.000    38.1992   -20.0773   -23.1963   120.0962    -0.1480    -3.0001   -62.4354     0.0000     0.0000     0.0000     1.0000     5.0000   300.0000    10.0759    14.9558     1.0010    -2.9998     9.0000    10.0000     5.0000    14.0000    16.0000     5.0000    10.0000    16.0000    -0.0005     0.0005   159.4167   -41.1662     2.1948    44.9510     2.0000     1.0000     4.9999     0.000
     17     1.1000     0.0000     1.1000    29.9995    14.7000     43.938     12.000 150721.000     60.000    38.3059   -20.0773   -23.2624   120.0962    -0.1480    -3.0001   -62.2448     0.0000     0.0000     0.0000     1.0000     5.0000   300.0000     9.4876    15.4310     1.0010    -2.9998     9.0000    10.0000     5.0000    14.0000    16.0000     5.0000    10.0000    16.0000    -0.0005     0.0005   159.4167   -41.1662     2.1946    44.6995     2.0000     1.0000     5.0000     0.000
     18     1.1000     0.0000     1.1000    29.7495    14.7000     43.742      6.000 150721.000     60.000    38.4134   -20.0773   -23.3286   120.0962    -0.1480    -3.0001   -62.0538     0.0000     0.0000     0.0000     1.0000     5.0000   300.0000     8.9144    15.8940     1.0010    -2.9998     9.0000    10.0000     5.0000    14.0000    16.0000     5.0000    10.0000    16.0000    -0.0005     0.0005   159.4167   -41.1662     2.1946    44.4495     2.0000     1.0000     5.0019     0.000
     19     1.1000     0.0000     1.1001    29.5002    14.7000     43.729     12.000 150721.000     60.000    38.5219   -20.0773   -23.3952   120.0962    -0.1480    -3.0001   -61.8623     0.0000     0.0000     0.0000     1.0000     5.0000   300.0000     8.3554    16.3466     1.0010    -2.9998     9.0000    10.0000     5.0000    14.0000    16.0000     5.0000    10.0000    16.0000    -0.0005     0.0005   159.4167   -41.1662     2.1947    44.2002     2.0000     1.0000     5.0005     0.000
     20     1.1000     0.0000     1.1001    29.2507    14.7000     43.369      5.000 150721.000     60.000    38.6313   -20.0773   -23.4625   120.0962    -0.1480    -3.0001   -61.6704     0.0000     0.0000     0.0000     1.0000     5.0000   300.0000     7.8090    16.7881     1.0010    -2.9998     9.0000    10.0000     5.0000    14.0000    16.0000     5.0000    10.0000    16.0000    -0.0005     0.0005   159.4167   -41.1662     2.1948    43.9507     2.0000     1.0000     4.9994     0.000
     21     1.1000     0.0000     1.1001    28.9994    14.7000     43.350     17.000 150721.000     60.000    38.7417   -20.0773   -23.5308   120.0962    -0.1480    -3.0001   -61.4781     0.0000     0.0000     0.0000     1.0000     5.0000   300.0000     7.2745    17.2184     1.0010    -2.9998     9.0000    10.0000     5.0000    14.0000    16.0000     5.0000    10.0000    16.0000    -0.0005     0.0005   159.4167   -41.1662     2.1947    43.6994     2.0000     1.0000     5.0004     0.000
     22     1.1000     0.0000     1.1000    28.7500    14.7000     43.207     11.000 150721.000     60.000    38.8530   -20.0773   -23.5992   120.0962    -0.1480    -3.0001   -61.2854     0.0000     0.0000     0.0000     1.0000     5.0000   300.0000     6.7509    17.6371     1.0010    -2.9998     9.0000    10.0000     5.0000    14.0000    16.0000     5.0000    10.0000    16.0000    -0.0005     0.0005   159.4167   -41.1662     2.1946    43.4500     2.0000     1.0000     4.9992     0.000
     23     1.1000     0.0000     1.1000    28.5001    14.7000     43.530     21.000 150721.000     60.000    38.9652   -20.0773   -23.6684   120.0962    -0.1480    -3.0001   -61.0922     0.0000     0.0000     0.0000     1.0000     5.0000   300.0000     6.2376    18.0493     1.0010    -2.9998     9.0000    10.0000     5.0000    14.0000    16.0000     5.0000    10.0000    16.0000    -0.0005     0.0005   159.4167   -41.1662     2.1946    43.2001     2.0000     1.0000     4.9993     0.000
     24     1.1000     0.0000     1.1000    28.2503    14.7000     43.550      9.000 150721.000     60.000    39.0785   -20.0773   -23.7381   120.0962    -0.1480    -3.0001   -60.8985     0.0000     0.0000     0.0000     1.0000     5.0000   300.0000     5.7334    18.4548     1.0010    -2.9998     9.0000    10.0000     5.0000    14.0000    16.0000     5.0000    10.0000    16.0000    -0.0005     0.0005   159.4167   -41.1662     2.1947    42.9503     2.0000     1.0000     5.0000     0.000
     25     1.1000     0.0000     1.1000    27.9999    14.7000     42.983     14.000 150721.000     60.000    39.1927   -20.0773   -23.8086   120.0962    -0.1480    -3.0001   -60.7044     0.0000     0.0000     0.0000     1.0000     5.0000   300.0000     5.2379    18.8513     1.0010    -2.9998     9.0000    10.0000     5.0000    14.0000    16.0000     5.0000    10.0000    16.0000    -0.0005     0.0005   159.4167   -41.1662     2.1946    42.6999     2.0000     1.0000     4.9992     0.000
     26     1.1000     0.0000     1.1000    27.7504    14.7000     42.881      9.000 150721.000     60.000    39.3079   -20.0773   -23.8795   120.0962    -0.1480    -3.0001   -60.5098     0.0000     0.0000     0.0000     1.0000     5.0000   300.0000     4.7505    19.2418     1.0010    -2.9998     9.0000    10.0000     5.0000    14.0000    16.0000     5.0000    10.0000    16.0000    -0.0005     0.0005   159.4167   -41.1662     2.1947    42.4504     2.0000     1.0000     5.0003     0.000
     27     1.1000     0.0000     1.1000    27.4994    14.7000     42.609     11.000 150721.000     60.000    39.4242   -20.0773   -23.9514   120.0962    -0.1480    -3.0001   -60.3147     0.0000     0.0000     0.0000     1.0000     5.0000   300.0000     4.2710    19.6251     1.0010    -2.9998     9.0000    10.0000     5.0000    14.0000    16.0000     5.0000    10.0000    16.0000    -0.0005     0.0005   159.4167   -41.1662     2.1946    42.1994     2.0000     1.0000     5.0003     0.000
     28     1.1000     0.0000     1.1001    27.2498    14.7000     42.068     18.000 150721.000     60.000    39.5415   -20.0773   -24.0236   120.0962    -0.1480    -3.0001   -60.1192     0.0000     0.0000     0.0000     1.0000     5.0000   300.0000     3.7989    20.0042     1.0010    -2.9998     9.0000    10.0000     5.0000    14.0000    16.0000     5.0000    10.0000    16.0000    -0.0005     0.0005   159.4167   -41.1662     2.1947    41.9498     2.0000     1.0000     5.0007     0.000
     29     1.1000     0.0000     1.1002    27.0010    14.7000     41.857     13.000 150721.000     60.000    39.6598   -20.0773   -24.0963   120.0962    -0.1480    -3.0001   -59.9232     0.0000     0.0000     0.0000     1.0000     5.0000   300.0000     3.3329    20.3773     1.0010    -2.9998     9.0000    10.0000     5.0000    14.0000    16.0000     5.0000    10.0000    16.0000    -0.0005     0.0005   159.4167   -41.1662     2.1948    41.7010     2.0000     1.0000     5.0003     0.000
     30     1.1000     0.0000     1.1000    26.7500    14.7000     41.362     10.000 150721.000     60.000    39.7792   -20.0773   -24.1702   120.0962    -0.1480    -3.0001   -59.7267     0.0000     0.0000     0.0000     1.0000     5.0000   300.0000     2.8736    20.7405     1.0010    -2.9998     9.0000    10.0000     5.0000    14.0000    16.0000     5.0000    10.0000    16.0000    -0.0005     0.0005   159.4167   -41.1662     2.1947    41.4500     2.0000     1.0000     5.0001     0.000
     31     1.1000     0.0000     1.1000    26.4993    14.7000     40.817     10.000 150721.000     60.000    39.8998   -20.0773   -24.2448   120.0962    -0.1480    -3.0001   -59.5297     0.0000     0.0000     0.0000     1.0000     5.0000   300.0000     2.4201    21.1003     1.0010    -2.9998     9.0000    10.0000     5.0000    14.0000    16.0000     5.0000    10.0000    16.0000    -0.0005     0.0005   159.4167   -41.1662     2.1946    41.1993     2.0000     1.0000     5.0005     0.000
     32     1.1000     0.0000     1.0999    26.2500    14.7000     40.313     10.000 150721.000     60.000    40.0214   -20.0773   -24.3196   120.0962    -0.1480    -3.0001   -59.3323     0.0000     0.0000     0.0000     1.0000     5.0000   300.0000     1.9725    21.4538     1.0010    -2.9998     9.0000    10.0000     5.0000    14.0000    16.0000     5.0000    10.0000    16.0000    -0.0005     0.0005   159.4167   -41.1662     2.1946    40.9500     2.0000     1.0000     5.0003     0.000
     33     1.1000     0.0000     1.1000    26.0001    14.7000     39.894     12.000 150721.000     60.000    40.1441   -20.0773   -24.3953   120.0962    -0.1480    -3.0001   -59.1343     0.0000     0.0000     0.0000     1.0000     5.0000   300.0000     1.5300    21.8072     1.0010    -2.9998     9.0000    10.0000     5.0000    14.0000    16.0000     5.0000    10.0000    16.0000    -0.0005     0.0005   159.4167   -41.1662     2.1947    40.7001     2.0000     1.0000     4.9993     0.000
     34     1.1000     0.0000     1.1001    25.7498    14.7000     39.687      8.000 150721.000     60.000    40.2680   -20.0773   -24.4718   120.0962    -0.1480    -3.0001   -58.9359     0.0000     0.0000     0.0000     1.0000     5.0000   300.0000     1.0928    22.1546     1.0010    -2.9998     9.0000    10.0000     5.0000    14.0000    16.0000     5.0000    10.0000    16.0000    -0.0005     0.0005   159.4167   -41.1662     2.1947    40.4498     2.0000     1.0000     4.9993     0.000
     35     1.1000     0.0000     1.1000    25.5009    14.7000     39.355      7.000 150721.000     60.000    40.3930   -20.0773   -24.5486   120.0962    -0.1480    -3.0001   -58.7370     0.0000     0.0000     0.0000     1.0000     5.0000   300.0000     0.6603    22.4940     1.0010    -2.9998     9.0000    10.0000     5.0000    14.0000    16.0000     5.0000    10.0000    16.0000    -0.0005     0.0005   159.4167   -41.1662     2.1947    40.2009     2.0000     1.0000     5.0005     0.000
     36     1.1000     0.0000     1.1000    25.2500    14.7000     39.193      9.000 150721.000     60.000    40.5192   -20.0773   -24.6268   120.0962    -0.1480    -3.0001   -58.5375     0.0000     0.0000     0.0000     1.0000     5.0000   300.0000     0.2321    22.8328     1.0010    -2.9998     9.0000    10.0000     5.0000    14.0000    16.0000     5.0000    10.0000    16.0000    -0.0005     0.0005   159.4167   -41.1662     2.1947    39.9500     2.0000     1.0000     4.9991     0.000
     37     1.1000     0.0000     1.1001    25.0001    14.7000     39.084      7.000 150721.000     60.000    40.6465   -20.0773   -24.7054   120.0962    -0.1480    -3.0001   -58.3375     0.0000     0.0000     0.0000     1.0000     5.0000   300.0000    -0.1916    23.1676     1.0010    -2.9998     9.0000    10.0000     5.0000    14.0000    16.0000     5.0000    10.0000    16.0000    -0.0005     0.0005   159.4167   -41.1662     2.1947    39.7001     2.0000     1.0000     5.0015     0.000
