# scan = 82
# date = 9/11/2024
# time = 5:52:38 PM
# proposal = 34735
# experiment = Magnons and paramagnon coupling in MnTe
# experiment_number = 813
# command = scan h 1.5 k 0.0 l 1.5 e 45 44 0.2 ef 14.7 preset mcu 20
# builtin_command = scan h 1.5 k 0.0 l 1.5 e 45 44 0.2 ef 14.7 preset mcu 20
# users = Benjamin Frandsen, Songxue Chi, George Yumnam, Huibo Cao, Michael Manley, Raphael Hermann, Eleanor Clements
# local_contact = Eleanor Clements
# scan_title = check spurion (1.5,0,1.5) near 44.4 meV
# monochromator = PG002
# analyzer = Pg002
# sense = -+-
# collimation = 48-40-40-120
# samplename = MnTe
# sampletype = crystal
# samplemosaic = 30.000000
# latticeconstants = 4.128474,4.128474,6.651507,90.000000,90.000000,120.000000
# ubmatrix = -0.000328,-0.004396,-0.150319,-0.279308,-0.152332,0.000314,-0.014647,0.234528,-0.002614
# mode = 0
# plane_normal = -0.017470,-0.052341,0.998476
# ubconf = UB09Sep2024_43441PM.ini
# preset_type = normal 
# preset_channel = mcu
# preset_value = 20.000000
# def_x = e
# def_y = detector
# col_headers = 
#   Pt.          h          k          l          e         ef       time   detector    monitor        mcu focal_length         m1         m2   mcrystal       marc     mtrans     mfocus       ampl         dc       freq     output       temp     temp_2         s1         s2        sgl        sgu        bbb        bbl        bbr        bbt        bab        bal        bar        bat        stl        stu         a1         a2          q         ei   ampl_out output_state        vti     sample
      1     1.5001     0.0000     1.4999    45.0050    14.7000     17.157      7.000  50241.000     20.000    33.1461   -20.0773   -20.0928   120.0962    -0.1480    -3.0001   -73.0266     0.0000     0.0000     0.0000     1.0000     5.0000   300.0000    11.0218    19.5225     1.0010    -2.9998     9.0000    10.0000     5.0000    14.0000    16.0000     5.0000    10.0000    16.0000    -0.0005     0.0005   159.4165   -41.1662     2.9929    59.7050     2.0000     1.0000     4.9995     0.000
      2     1.5000     0.0000     1.5000    44.8006    14.7000     17.206      7.000  50241.000     20.000    33.2017   -20.0773   -20.1276   120.0962    -0.1480    -3.0001   -72.8904     0.0000     0.0000     0.0000     1.0000     5.0000   300.0000    10.7534    19.8312     1.0010    -2.9998     9.0000    10.0000     5.0000    14.0000    16.0000     5.0000    10.0000    16.0000    -0.0005     0.0005   159.4165   -41.1662     2.9928    59.5006     2.0000     1.0000     4.9998     0.000
      3     1.5000     0.0000     1.5000    44.5998    14.7000     17.063     65.000  50241.000     20.000    33.2576   -20.0773   -20.1620   120.0962    -0.1480    -3.0001   -72.7541     0.0000     0.0000     0.0000     1.0000     5.0000   300.0000    10.4876    20.1342     1.0010    -2.9998     9.0000    10.0000     5.0000    14.0000    16.0000     5.0000    10.0000    16.0000    -0.0005     0.0005   159.4165   -41.1662     2.9927    59.2998     2.0000     1.0000     5.0006     0.000
      4     1.5000     0.0000     1.5000    44.4000    14.7000     17.020    237.000  50241.000     20.000    33.3139   -20.0773   -20.1964   120.0962    -0.1480    -3.0001   -72.6175     0.0000     0.0000     0.0000     1.0000     5.0000   300.0000    10.2256    20.4320     1.0010    -2.9998     9.0000    10.0000     5.0000    14.0000    16.0000     5.0000    10.0000    16.0000    -0.0005     0.0005   159.4165   -41.1662     2.9927    59.1000     2.0000     1.0000     4.9994     0.000
      5     1.5000     0.0000     1.5001    44.1999    14.7000      0.000      0.000      0.000     20.000    33.3704   -20.0773   -20.2311   120.0962    -0.1480    -3.0001   -72.4808     0.0000     0.0000     0.0000     1.0000     5.0000   300.0000     9.9675    20.7281     1.0010    -2.9998     9.0000    10.0000     5.0000    14.0000    16.0000     5.0000    10.0000    16.0000    -0.0005     0.0005   159.4165   -41.1662     2.9928    58.8999     2.0000     1.0000     4.9996     0.000
# Sum of Counts = 316
# Center of Mass = 44.463374+/-3.537323
# Full Width Half-Maximum = 0.251859+/-3.201027
# 5:56:11 PM  9/11/2024   scan stopped!!
