# scan = 58
# date = 6/24/2012
# time = 12:39:07 AM
# proposal = 5137
# experiment = Measurement of the phonon dispersion of Bismuch at high temperatures
# experiment_number = 50
# command = scan h 1.5 k 0 l 1.5 e -15.5 -10.5 0.25 preset mcu 6
# builtin_command = scan h 1.5 k 0 l 1.5 e -15.5 -10.5 0.25 preset mcu 6
# users = Michael Manley and Olivier Delaire
# local_contact = T. Hong
# scan_title = LO at L (1.5, 0, 1.5), T=390K
# monochromator = PG002
# analyzer = Pg002
# sense = -+-
# collimation = 48-40-40-120
# samplename = C32D24CuN2O14
# sampletype = crystal
# samplemosaic = 30.000000
# latticeconstants = 4.535778,4.535778,11.837000,90.000000,90.000000,120.000000
# ubmatrix = 0.006903,-0.004243,-0.084398,0.254439,0.123374,0.002343,-0.004682,-0.222643,0.002907
# mode = 0
# plane_normal = 0.020999,0.010495,0.601255
# ubconf = UB21Jun2012_25646PM.ini
# preset_type = normal 
# preset_channel = mcu
# preset_value = 6.000000
# def_x = e
# def_y = detector
# col_headers = 
#   Pt.          h          k          l          e       time   detector    monitor        mcu focal_length         m1         m2       marc     mtrans     mfocus         s1         s2        sgl        sgu        stl        stu         a1         a2          q         ei         ef cold_tip_[a] sample_[b]   e_typ_tc   au-fe_tc       temp
      1     1.5000     0.0000     1.5000   -15.5000    365.144     67.000 491910.000      6.000    96.4440   142.9286   -74.1428     0.6359     0.0000    34.9840    65.2222    52.7450    -2.0000     1.0000     0.0000     0.0000   162.6801   -34.6398     2.5280     5.0000    20.5000   399.9920   397.6140     0.0000     0.0000   400.000
      2     1.5000     0.0000     1.5000   -15.2500    366.084     85.000 491910.000      6.000    96.4440   142.9286   -74.1428     0.6359     0.0000    34.9840    66.1100    53.3686    -2.0000     1.0000     0.0000     0.0000   162.5701   -34.8598     2.5280     5.0000    20.2500   399.9940   397.6060     0.0000     0.0000   400.000
      3     1.5000     0.0000     1.5000   -15.0000    365.944     59.000 491910.000      6.000    96.4440   142.9286   -74.1428     0.6359     0.0000    34.9840    66.9962    53.9931    -2.0000     1.0000     0.0000     0.0000   162.4580   -35.0840     2.5280     5.0000    20.0000   399.9990   397.6140     0.0000     0.0000   400.000
      4     1.5000     0.0000     1.5000   -14.7500    365.722     80.000 491910.000      6.000    96.4440   142.9286   -74.1428     0.6359     0.0000    34.9840    67.8808    54.6188    -2.0000     1.0000     0.0000     0.0000   162.3435   -35.3126     2.5280     5.0000    19.7500   400.0010   397.6000     0.0000     0.0000   400.000
      5     1.5000     0.0000     1.5000   -14.5000    366.020     86.000 491910.000      6.000    96.4440   142.9286   -74.1428     0.6359     0.0000    34.9840    68.7642    55.2460    -2.0000     1.0000     0.0000     0.0000   162.2271   -35.5458     2.5280     5.0000    19.5000   400.0040   397.6070     0.0000     0.0000   400.000
      6     1.5000     0.0000     1.5000   -14.2500    366.779    105.000 491910.000      6.000    96.4440   142.9286   -74.1428     0.6359     0.0000    34.9840    69.6465    55.8748    -2.0000     1.0000     0.0000     0.0000   162.1082   -35.7836     2.5280     5.0000    19.2500   400.0010   397.6240     0.0000     0.0000   400.000
      7     1.5000     0.0000     1.5000   -14.0000    366.866    144.000 491910.000      6.000    96.4440   142.9286   -74.1428     0.6359     0.0000    34.9840    70.5280    56.5056    -2.0000     1.0000     0.0000     0.0000   161.9869   -36.0262     2.5280     5.0000    19.0000   400.0000   397.6260     0.0000     0.0000   400.000
      8     1.5000     0.0000     1.5000   -13.7500    366.028    130.000 491910.000      6.000    96.4440   142.9286   -74.1428     0.6359     0.0000    34.9840    71.4088    57.1383    -2.0000     1.0000     0.0000     0.0000   161.8630   -36.2739     2.5280     5.0000    18.7500   399.9990   397.6170     0.0000     0.0000   400.000
      9     1.5000     0.0000     1.5000   -13.5000    366.227    157.000 491910.000      6.000    96.4440   142.9286   -74.1428     0.6359     0.0000    34.9840    72.2892    57.7733    -2.0000     1.0000     0.0000     0.0000   161.7366   -36.5268     2.5280     5.0000    18.5000   400.0000   397.6250     0.0000     0.0000   400.000
     10     1.5000     0.0000     1.5000   -13.2500    366.335    197.000 491910.000      6.000    96.4440   142.9286   -74.1428     0.6359     0.0000    34.9840    73.1694    58.4108    -2.0000     1.0000     0.0000     0.0000   161.6075   -36.7850     2.5280     5.0000    18.2500   399.9990   397.6100     0.0000     0.0000   400.000
     11     1.5000     0.0000     1.5000   -13.0000    366.577    172.000 491910.000      6.000    96.4440   142.9286   -74.1428     0.6359     0.0000    34.9840    74.0496    59.0511    -2.0000     1.0000     0.0000     0.0000   161.4756   -37.0488     2.5280     5.0000    18.0000   399.9970   397.6120     0.0000     0.0000   400.000
     12     1.5000     0.0000     1.5000   -12.7500    366.390    176.000 491910.000      6.000    96.4440   142.9286   -74.1428     0.6359     0.0000    34.9840    74.9300    59.6942    -2.0000     1.0000     0.0000     0.0000   161.3408   -37.3184     2.5280     5.0000    17.7500   399.9960   397.6110     0.0000     0.0000   400.000
     13     1.5000     0.0000     1.5000   -12.5000    366.620    121.000 491910.000      6.000    96.4440   142.9286   -74.1428     0.6359     0.0000    34.9840    75.8108    60.3406    -2.0000     1.0000     0.0000     0.0000   161.2030   -37.5939     2.5280     5.0000    17.5000   399.9970   397.6140     0.0000     0.0000   400.000
     14     1.5000     0.0000     1.5000   -12.2500    366.140    167.000 491910.000      6.000    96.4440   142.9286   -74.1428     0.6359     0.0000    34.9840    76.6922    60.9904    -2.0000     1.0000     0.0000     0.0000   161.0622   -37.8756     2.5280     5.0000    17.2500   399.9960   397.6070     0.0000     0.0000   400.000
     15     1.5000     0.0000     1.5000   -12.0000    367.253    125.000 491910.000      6.000    96.4440   142.9286   -74.1428     0.6359     0.0000    34.9840    77.5745    61.6438    -2.0000     1.0000     0.0000     0.0000   160.9181   -38.1638     2.5280     5.0000    17.0000   399.9950   397.6110     0.0000     0.0000   400.000
     16     1.5000     0.0000     1.5000   -11.7500    367.006    108.000 491910.000      6.000    96.4440   142.9286   -74.1428     0.6359     0.0000    34.9840    78.4578    62.3012    -2.0000     1.0000     0.0000     0.0000   160.7706   -38.4587     2.5280     5.0000    16.7500   399.9980   397.6060     0.0000     0.0000   400.000
     17     1.5000     0.0000     1.5000   -11.5000    366.789     88.000 491910.000      6.000    96.4440   142.9286   -74.1428     0.6359     0.0000    34.9840    79.3424    62.9628    -2.0000     1.0000     0.0000     0.0000   160.6196   -38.7605     2.5280     5.0000    16.5000   399.9990   397.6100     0.0000     0.0000   400.000
     18     1.5000     0.0000     1.5000   -11.2500    366.686     76.000 491910.000      6.000    96.4440   142.9286   -74.1428     0.6359     0.0000    34.9840    80.2284    63.6288    -2.0000     1.0000     0.0000     0.0000   160.4652   -39.0695     2.5280     5.0000    16.2500   400.0000   397.6220     0.0000     0.0000   400.000
     19     1.5000     0.0000     1.5000   -11.0000    367.683     75.000 491910.000      6.000    96.4440   142.9286   -74.1428     0.6359     0.0000    34.9840    81.1161    64.2995    -2.0000     1.0000     0.0000     0.0000   160.3070   -39.3861     2.5280     5.0000    16.0000   400.0010   397.6130     0.0000     0.0000   400.000
     20     1.5000     0.0000     1.5000   -10.7500    366.526     64.000 491910.000      6.000    96.4440   142.9286   -74.1428     0.6359     0.0000    34.9840    82.0058    64.9753    -2.0000     1.0000     0.0000     0.0000   160.1448   -39.7105     2.5280     5.0000    15.7500   400.0000   397.5980     0.0000     0.0000   400.000
     21     1.5000     0.0000     1.5000   -10.5000    367.080     50.000 491910.000      6.000    96.4440   142.9286   -74.1428     0.6359     0.0000    34.9840    82.8976    65.6564    -2.0000     1.0000     0.0000     0.0000   159.9785   -40.0430     2.5280     5.0000    15.5000   399.9940   397.6100     0.0000     0.0000   400.000
# Sum of Counts = 2332
# Center of Mass = -13.031089+/-0.382523
# Full Width Half-Maximum = 2.536271+/-0.153777
# 2:48:46 AM  6/24/2012   scan completed.
