# scan = 62
# date = 6/24/2012
# time = 9:02:59 AM
# proposal = 5137
# experiment = Measurement of the phonon dispersion of Bismuch at high temperatures
# experiment_number = 50
# command = scan h -0.75 k 0 l 1.5 e -7.5 -1.5 0.25 preset mcu 4 
# builtin_command = scan h -0.75 k 0 l 1.5 e -7.5 -1.5 0.25 preset mcu 4
# users = Michael Manley and Olivier Delaire
# local_contact = T. Hong
# scan_title = LA+TA G-X (-0.75, 0, 1.5), T=390K
# monochromator = PG002
# analyzer = Pg002
# sense = -+-
# collimation = 48-40-40-120
# samplename = C32D24CuN2O14
# sampletype = crystal
# samplemosaic = 30.000000
# latticeconstants = 4.535778,4.535778,11.837000,90.000000,90.000000,120.000000
# ubmatrix = 0.006903,-0.004243,-0.084398,0.254439,0.123374,0.002343,-0.004682,-0.222643,0.002907
# mode = 0
# plane_normal = 0.020999,0.010495,0.601255
# ubconf = UB21Jun2012_25646PM.ini
# preset_type = normal 
# preset_channel = mcu
# preset_value = 4.000000
# def_x = e
# def_y = detector
# col_headers = 
#   Pt.          h          k          l          e       time   detector    monitor        mcu focal_length         m1         m2       marc     mtrans     mfocus         s1         s2        sgl        sgu        stl        stu         a1         a2          q         ei         ef cold_tip_[a] sample_[b]   e_typ_tc   au-fe_tc       temp
      1    -0.7500     0.0000     1.5000    -7.5000    241.091     37.000 327940.000      4.000    96.4440   142.9286   -74.1428     0.6359     0.0000    34.9840   -75.0967    33.3730    -2.0000     1.0000     0.0000     0.0000   157.5889   -44.8223     1.4398     5.0000    12.5000   399.9960   397.5920     0.0000     0.0000   400.000
      2    -0.7500     0.0000     1.5000    -7.2500    241.452     24.000 327940.000      4.000    96.4440   142.9286   -74.1428     0.6359     0.0000    34.9840   -73.4582    34.1457    -2.0000     1.0000     0.0000     0.0000   157.3487   -45.3025     1.4398     5.0000    12.2500   399.9840   397.5820     0.0000     0.0000   400.000
      3    -0.7500     0.0000     1.5000    -7.0000    243.804     47.000 327940.000      4.000    96.4440   142.9286   -74.1428     0.6359     0.0000    34.9840   -71.8354    34.9100    -2.0000     1.0000     0.0000     0.0000   157.1007   -45.7985     1.4398     5.0000    12.0000   400.0080   397.5930     0.0000     0.0000   400.000
      4    -0.7500     0.0000     1.5000    -6.7500    243.473     51.000 327940.000      4.000    96.4440   142.9286   -74.1428     0.6359     0.0000    34.9840   -70.2264    35.6668    -2.0000     1.0000     0.0000     0.0000   156.8444   -46.3112     1.4398     5.0000    11.7500   399.9960   397.5950     0.0000     0.0000   400.000
      5    -0.7500     0.0000     1.5000    -6.5000    244.095     77.000 327940.000      4.000    96.4440   142.9286   -74.1428     0.6359     0.0000    34.9840   -68.6298    36.4168    -2.0000     1.0000     0.0000     0.0000   156.5792   -46.8416     1.4398     5.0000    11.5000   399.9820   397.6080     0.0000     0.0000   400.000
      6    -0.7500     0.0000     1.5000    -6.2500    243.866    141.000 327940.000      4.000    96.4440   142.9286   -74.1428     0.6359     0.0000    34.9840   -67.0440    37.1606    -2.0000     1.0000     0.0000     0.0000   156.3046   -47.3907     1.4398     5.0000    11.2500   400.0140   397.5940     0.0000     0.0000   400.000
      7    -0.7500     0.0000     1.5000    -6.0000    244.308    140.000 327940.000      4.000    96.4440   142.9286   -74.1428     0.6359     0.0000    34.9840   -65.4676    37.8989    -2.0000     1.0000     0.0000     0.0000   156.0202   -47.9596     1.4398     5.0000    11.0000   399.9830   397.6110     0.0000     0.0000   400.000
      8    -0.7500     0.0000     1.5000    -5.7500    243.387     96.000 327940.000      4.000    96.4440   142.9286   -74.1428     0.6359     0.0000    34.9840   -63.8992    38.6322    -2.0000     1.0000     0.0000     0.0000   155.7252   -48.5495     1.4398     5.0000    10.7500   400.0120   397.5980     0.0000     0.0000   400.000
      9    -0.7500     0.0000     1.5000    -5.5000    242.404     64.000 327940.000      4.000    96.4440   142.9286   -74.1428     0.6359     0.0000    34.9840   -62.3377    39.3613    -2.0000     1.0000     0.0000     0.0000   155.4190   -49.1619     1.4398     5.0000    10.5000   399.9910   397.6000     0.0000     0.0000   400.000
     10    -0.7500     0.0000     1.5000    -5.2500    243.418     38.000 327940.000      4.000    96.4440   142.9286   -74.1428     0.6359     0.0000    34.9840   -60.7817    40.0864    -2.0000     1.0000     0.0000     0.0000   155.1010   -49.7981     1.4398     5.0000    10.2500   399.9990   397.5860     0.0000     0.0000   400.000
     11    -0.7500     0.0000     1.5000    -5.0000    242.950     24.000 327940.000      4.000    96.4440   142.9286   -74.1428     0.6359     0.0000    34.9840   -59.2301    40.8083    -2.0000     1.0000     0.0000     0.0000   154.7702   -50.4598     1.4398     5.0000    10.0000   399.9980   397.5970     0.0000     0.0000   400.000
     12    -0.7500     0.0000     1.5000    -4.7500    241.618     27.000 327940.000      4.000    96.4440   142.9286   -74.1428     0.6359     0.0000    34.9840   -57.6817    41.5273    -2.0000     1.0000     0.0000     0.0000   154.4257   -51.1486     1.4398     5.0000     9.7500   399.9970   397.6090     0.0000     0.0000   400.000
     13    -0.7500     0.0000     1.5000    -4.5000    241.766     22.000 327940.000      4.000    96.4440   142.9286   -74.1428     0.6359     0.0000    34.9840   -56.1353    42.2439    -2.0000     1.0000     0.0000     0.0000   154.0667   -51.8666     1.4398     5.0000     9.5000   400.0050   397.6130     0.0000     0.0000   400.000
     14    -0.7500     0.0000     1.5000    -4.2500    242.241     26.000 327940.000      4.000    96.4440   142.9286   -74.1428     0.6359     0.0000    34.9840   -54.5899    42.9586    -2.0000     1.0000     0.0000     0.0000   153.6921   -52.6158     1.4398     5.0000     9.2500   399.9920   397.6130     0.0000     0.0000   400.000
     15    -0.7500     0.0000     1.5000    -4.0000    241.848     20.000 327940.000      4.000    96.4440   142.9286   -74.1428     0.6359     0.0000    34.9840   -53.0442    43.6718    -2.0000     1.0000     0.0000     0.0000   153.3007   -53.3986     1.4398     5.0000     9.0000   400.0070   397.6020     0.0000     0.0000   400.000
     16    -0.7500     0.0000     1.5000    -3.7500    241.875     19.000 327940.000      4.000    96.4440   142.9286   -74.1428     0.6359     0.0000    34.9840   -51.4972    44.3839    -2.0000     1.0000     0.0000     0.0000   152.8912   -54.2176     1.4398     5.0000     8.7500   399.9950   397.6050     0.0000     0.0000   400.000
     17    -0.7500     0.0000     1.5000    -3.5000    240.641     12.000 327940.000      4.000    96.4440   142.9286   -74.1428     0.6359     0.0000    34.9840   -49.9478    45.0954    -2.0000     1.0000     0.0000     0.0000   152.4622   -55.0756     1.4398     5.0000     8.5000   400.0030   397.6130     0.0000     0.0000   400.000
     18    -0.7500     0.0000     1.5000    -3.2500    241.060     25.000 327940.000      4.000    96.4440   142.9286   -74.1428     0.6359     0.0000    34.9840   -48.3947    45.8066    -2.0000     1.0000     0.0000     0.0000   152.0120   -55.9760     1.4398     5.0000     8.2500   399.9960   397.6120     0.0000     0.0000   400.000
     19    -0.7500     0.0000     1.5000    -3.0000    241.167     20.000 327940.000      4.000    96.4440   142.9286   -74.1428     0.6359     0.0000    34.9840   -46.8368    46.5180    -2.0000     1.0000     0.0000     0.0000   151.5388   -56.9223     1.4398     5.0000     8.0000   399.9990   397.6150     0.0000     0.0000   400.000
     20    -0.7500     0.0000     1.5000    -2.7500    241.091     46.000 327940.000      4.000    96.4440   142.9286   -74.1428     0.6359     0.0000    34.9840   -45.2730    47.2300    -2.0000     1.0000     0.0000     0.0000   151.0407   -57.9187     1.4398     5.0000     7.7500   400.0040   397.5950     0.0000     0.0000   400.000
     21    -0.7500     0.0000     1.5000    -2.5000    241.527     70.000 327940.000      4.000    96.4440   142.9286   -74.1428     0.6359     0.0000    34.9840   -43.7018    47.9430    -2.0000     1.0000     0.0000     0.0000   150.5152   -58.9695     1.4398     5.0000     7.5000   399.9880   397.6020     0.0000     0.0000   400.000
     22    -0.7500     0.0000     1.5000    -2.2500    241.383     68.000 327940.000      4.000    96.4440   142.9286   -74.1428     0.6359     0.0000    34.9840   -42.1222    48.6574    -2.0000     1.0000     0.0000     0.0000   149.9599   -60.0802     1.4398     5.0000     7.2500   400.0040   397.6200     0.0000     0.0000   400.000
     23    -0.7500     0.0000     1.5000    -2.0000    240.751     24.000 327940.000      4.000    96.4440   142.9286   -74.1428     0.6359     0.0000    34.9840   -40.5326    49.3737    -2.0000     1.0000     0.0000     0.0000   149.3717   -61.2567     1.4398     5.0000     7.0000   399.9990   397.6150     0.0000     0.0000   400.000
     24    -0.7500     0.0000     1.5000    -1.7500    241.098     36.000 327940.000      4.000    96.4440   142.9286   -74.1428     0.6359     0.0000    34.9840   -38.9316    50.0922    -2.0000     1.0000     0.0000     0.0000   148.7471   -62.5058     1.4398     5.0000     6.7500   400.0070   397.6160     0.0000     0.0000   400.000
     25    -0.7500     0.0000     1.5000    -1.5000    240.931     18.000 327940.000      4.000    96.4440   142.9286   -74.1428     0.6359     0.0000    34.9840   -37.3177    50.8133    -2.0000     1.0000     0.0000     0.0000   148.0824   -63.8352     1.4398     5.0000     6.5000   399.9930   397.6050     0.0000     0.0000   400.000
# Sum of Counts = 1172
# Center of Mass = -4.978456+/-0.211863
# Full Width Half-Maximum = 3.485107+/-0.128230
# 10:45:28 AM  6/24/2012   scan completed.
