# scan = 50
# date = 6/23/2012
# time = 2:04:59 PM
# proposal = 5137
# experiment = Measurement of the phonon dispersion of Bismuch at high temperatures
# experiment_number = 50
# command = scan h -0.75 k 0 l 1.5 e -7.5 -1.5 0.25 preset mcu 4 
# builtin_command = scan h -0.75 k 0 l 1.5 e -7.5 -1.5 0.25 preset mcu 4
# users = Michael Manley and Olivier Delaire
# local_contact = T. Hong
# scan_title = LA+TA G-X (-0.75, 0, 1.5), T=225K
# monochromator = PG002
# analyzer = Pg002
# sense = -+-
# collimation = 48-40-40-120
# samplename = C32D24CuN2O14
# sampletype = crystal
# samplemosaic = 30.000000
# latticeconstants = 4.535778,4.535778,11.837000,90.000000,90.000000,120.000000
# ubmatrix = 0.006903,-0.004243,-0.084398,0.254439,0.123374,0.002343,-0.004682,-0.222643,0.002907
# mode = 0
# plane_normal = 0.020999,0.010495,0.601255
# ubconf = UB21Jun2012_25646PM.ini
# preset_type = normal 
# preset_channel = mcu
# preset_value = 4.000000
# def_x = e
# def_y = detector
# col_headers = 
#   Pt.          h          k          l          e       time   detector    monitor        mcu focal_length         m1         m2       marc     mtrans     mfocus         s1         s2        sgl        sgu        stl        stu         a1         a2          q         ei         ef cold_tip_[a] sample_[b]   e_typ_tc   au-fe_tc       temp
      1    -0.7500     0.0000     1.5000    -7.5000    241.269     12.000 327940.000      4.000    96.4440   142.9286   -74.1428     0.6359     0.0000    34.9840   -75.0967    33.3731    -2.0000     1.0000     0.0000     0.0000   157.5889   -44.8223     1.4398     5.0000    12.5000   225.0790   224.1780     0.0000     0.0000   225.000
      2    -0.7500     0.0000     1.5000    -7.2500    240.186     18.000 327940.000      4.000    96.4440   142.9286   -74.1428     0.6359     0.0000    34.9840   -73.4582    34.1457    -2.0000     1.0000     0.0000     0.0000   157.3487   -45.3025     1.4398     5.0000    12.2500   225.7320   223.9630     0.0000     0.0000   225.000
      3    -0.7500     0.0000     1.5000    -7.0000    241.553     16.000 327940.000      4.000    96.4440   142.9286   -74.1428     0.6359     0.0000    34.9840   -71.8354    34.9100    -2.0000     1.0000     0.0000     0.0000   157.1007   -45.7985     1.4398     5.0000    12.0000   225.1380   224.1920     0.0000     0.0000   225.000
      4    -0.7500     0.0000     1.5000    -6.7500    240.875     28.000 327940.000      4.000    96.4440   142.9286   -74.1428     0.6359     0.0000    34.9840   -70.2264    35.6668    -2.0000     1.0000     0.0000     0.0000   156.8444   -46.3113     1.4398     5.0000    11.7500   225.4820   223.9340     0.0000     0.0000   225.000
      5    -0.7500     0.0000     1.5000    -6.5000    241.477     64.000 327940.000      4.000    96.4440   142.9286   -74.1428     0.6359     0.0000    34.9840   -68.6298    36.4168    -2.0000     1.0000     0.0000     0.0000   156.5792   -46.8416     1.4398     5.0000    11.5000   225.1960   224.2200     0.0000     0.0000   225.000
      6    -0.7500     0.0000     1.5000    -6.2500    241.571     87.000 327940.000      4.000    96.4440   142.9286   -74.1428     0.6359     0.0000    34.9840   -67.0440    37.1606    -2.0000     1.0000     0.0000     0.0000   156.3046   -47.3907     1.4398     5.0000    11.2500   225.2280   223.9150     0.0000     0.0000   225.000
      7    -0.7500     0.0000     1.5000    -6.0000    241.471     80.000 327940.000      4.000    96.4440   142.9286   -74.1428     0.6359     0.0000    34.9840   -65.4676    37.8989    -2.0000     1.0000     0.0000     0.0000   156.0202   -47.9596     1.4398     5.0000    11.0000   225.2590   224.2310     0.0000     0.0000   225.000
      8    -0.7500     0.0000     1.5000    -5.7500    240.972     41.000 327940.000      4.000    96.4440   142.9286   -74.1428     0.6359     0.0000    34.9840   -63.8992    38.6322    -2.0000     1.0000     0.0000     0.0000   155.7252   -48.5496     1.4398     5.0000    10.7500   224.9910   223.8920     0.0000     0.0000   225.000
      9    -0.7500     0.0000     1.5000    -5.5000    241.012     20.000 327940.000      4.000    96.4440   142.9286   -74.1428     0.6359     0.0000    34.9840   -62.3377    39.3613    -2.0000     1.0000     0.0000     0.0000   155.4190   -49.1619     1.4398     5.0000    10.5000   225.3220   224.2380     0.0000     0.0000   225.000
     10    -0.7500     0.0000     1.5000    -5.2500    241.734     13.000 327940.000      4.000    96.4440   142.9286   -74.1428     0.6359     0.0000    34.9840   -60.7817    40.0864    -2.0000     1.0000     0.0000     0.0000   155.1008   -49.7981     1.4398     5.0000    10.2500   224.8360   223.9270     0.0000     0.0000   225.000
     11    -0.7500     0.0000     1.5000    -5.0000    241.123     12.000 327940.000      4.000    96.4440   142.9286   -74.1428     0.6359     0.0000    34.9840   -59.2301    40.8083    -2.0000     1.0000     0.0000     0.0000   154.7702   -50.4598     1.4398     5.0000    10.0000   225.3870   224.2360     0.0000     0.0000   225.000
     12    -0.7500     0.0000     1.5000    -4.7500    241.379     14.000 327940.000      4.000    96.4440   142.9286   -74.1428     0.6359     0.0000    34.9840   -57.6817    41.5273    -2.0000     1.0000     0.0000     0.0000   154.4257   -51.1486     1.4398     5.0000     9.7500   224.7720   223.9500     0.0000     0.0000   225.000
     13    -0.7500     0.0000     1.5000    -4.5000    240.093     14.000 327940.000      4.000    96.4440   142.9286   -74.1428     0.6359     0.0000    34.9840   -56.1353    42.2439    -2.0000     1.0000     0.0000     0.0000   154.0667   -51.8666     1.4398     5.0000     9.5000   225.4510   224.2410     0.0000     0.0000   225.000
     14    -0.7500     0.0000     1.5000    -4.2500    241.119     19.000 327940.000      4.000    96.4440   142.9286   -74.1428     0.6359     0.0000    34.9840   -54.5899    42.9586    -2.0000     1.0000     0.0000     0.0000   153.6920   -52.6158     1.4398     5.0000     9.2500   224.7540   223.9760     0.0000     0.0000   225.000
     15    -0.7500     0.0000     1.5000    -4.0000    241.674     10.000 327940.000      4.000    96.4440   142.9286   -74.1428     0.6359     0.0000    34.9840   -53.0442    43.6718    -2.0000     1.0000     0.0000     0.0000   153.3005   -53.3986     1.4398     5.0000     9.0000   225.5320   224.2360     0.0000     0.0000   225.000
     16    -0.7500     0.0000     1.5000    -3.7500    241.724      8.000 327940.000      4.000    96.4440   142.9286   -74.1428     0.6359     0.0000    34.9840   -51.4972    44.3839    -2.0000     1.0000     0.0000     0.0000   152.8912   -54.2176     1.4398     5.0000     8.7500   224.7770   224.0110     0.0000     0.0000   225.000
     17    -0.7500     0.0000     1.5000    -3.5000    240.899     21.000 327940.000      4.000    96.4440   142.9286   -74.1428     0.6359     0.0000    34.9840   -49.9478    45.0954    -2.0000     1.0000     0.0000     0.0000   152.4622   -55.0756     1.4398     5.0000     8.5000   225.6000   224.2150     0.0000     0.0000   225.000
     18    -0.7500     0.0000     1.5000    -3.2500    241.690      9.000 327940.000      4.000    96.4440   142.9286   -74.1428     0.6359     0.0000    34.9840   -48.3947    45.8066    -2.0000     1.0000     0.0000     0.0000   152.0120   -55.9760     1.4398     5.0000     8.2500   224.8120   224.0370     0.0000     0.0000   225.000
     19    -0.7500     0.0000     1.5000    -3.0000    241.537     15.000 327940.000      4.000    96.4440   142.9286   -74.1428     0.6359     0.0000    34.9840   -46.8368    46.5180    -2.0000     1.0000     0.0000     0.0000   151.5387   -56.9223     1.4398     5.0000     8.0000   225.6690   224.1950     0.0000     0.0000   225.000
     20    -0.7500     0.0000     1.5000    -2.7500    241.665     26.000 327940.000      4.000    96.4440   142.9286   -74.1428     0.6359     0.0000    34.9840   -45.2730    47.2300    -2.0000     1.0000     0.0000     0.0000   151.0406   -57.9186     1.4398     5.0000     7.7500   224.8500   224.0570     0.0000     0.0000   225.000
     21    -0.7500     0.0000     1.5000    -2.5000    241.339     44.000 327940.000      4.000    96.4440   142.9286   -74.1428     0.6359     0.0000    34.9840   -43.7018    47.9430    -2.0000     1.0000     0.0000     0.0000   150.5152   -58.9695     1.4398     5.0000     7.5000   225.7520   224.1730     0.0000     0.0000   225.000
     22    -0.7500     0.0000     1.5000    -2.2500    241.057     17.000 327940.000      4.000    96.4440   142.9286   -74.1428     0.6359     0.0000    34.9840   -42.1222    48.6574    -2.0000     1.0000     0.0000     0.0000   149.9599   -60.0802     1.4398     5.0000     7.2500   224.9050   224.0990     0.0000     0.0000   225.000
     23    -0.7500     0.0000     1.5000    -2.0000    241.413      9.000 327940.000      4.000    96.4440   142.9286   -74.1428     0.6359     0.0000    34.9840   -40.5326    49.3737    -2.0000     1.0000     0.0000     0.0000   149.3717   -61.2567     1.4398     5.0000     7.0000   225.8190   224.1220     0.0000     0.0000   225.000
     24    -0.7500     0.0000     1.5000    -1.7500    241.909     10.000 327940.000      4.000    96.4440   142.9286   -74.1428     0.6359     0.0000    34.9840   -38.9316    50.0922    -2.0000     1.0000     0.0000     0.0000   148.7471   -62.5057     1.4398     5.0000     6.7500   224.9530   224.1220     0.0000     0.0000   225.000
     25    -0.7500     0.0000     1.5000    -1.5000    241.940      7.000 327940.000      4.000    96.4440   142.9286   -74.1428     0.6359     0.0000    34.9840   -37.3177    50.8133    -2.0000     1.0000     0.0000     0.0000   148.0824   -63.8352     1.4398     5.0000     6.5000   225.8600   224.0890     0.0000     0.0000   225.000
# Sum of Counts = 614
# Center of Mass = -5.096091+/-0.298407
# Full Width Half-Maximum = 3.307238+/-0.179734
# 3:47:07 PM  6/23/2012   scan completed.
