# scan = 1
# date = 6/21/2012
# time = 11:07:38 AM
# proposal = 5137
# experiment = Measurement of the phonon dispersion of Bismuch at high temperatures
# experiment_number = 50
# command = scan s2 56 63 0.2 
# builtin_command = scan s2 56 63 0.2
# users = Michael Manley and Olivier Delaire
# local_contact = T. Hong
# scan_title = Ni powder (1/2,1/2,1/2), Ei=5 meV
# monochromator = PG002
# analyzer = Pg002
# sense = -+-
# collimation = 48-40-40-120
# samplename = C32D24CuN2O14
# sampletype = crystal
# samplemosaic = 30.000000
# latticeconstants = 5.000000,5.000000,5.000000,90.000000,90.000000,90.000000
# ubmatrix = -0.141421,-0.141421,0.000000,0.000000,0.000000,-0.200000,0.141421,-0.141421,0.000000
# mode = 0
# plane_normal = 0.000000,0.000000,1.000000
# ubconf = UB21Jun2012_110654AM.ini
# preset_type = normal 
# preset_channel = time
# preset_value = 10.000000
# def_x = s2
# def_y = detector
# col_headers = 
#   Pt.         s2       time   detector    monitor        mcu focal_length         m1         m2       marc     mtrans     mfocus         s1        sgl        sgu        stl        stu         a1         a2          q          h          k          l         ei         ef          e cold_tip_[a] sample_[b]   e_typ_tc   au-fe_tc       temp
      1    56.0000     10.000     75.000  20857.000     10.323    96.4440   142.9286   -74.1428     0.6359     0.0000    34.9840     0.0000     0.0000     0.0000     0.0000     0.0000    90.0000     0.0000     1.4585     0.7246     0.7246     0.5449     5.0000     5.0000     0.0000     1.0000   504.9990     0.0000     0.0000   300.000
      2    56.2000     10.000     84.000  20628.000     10.209    96.4440   142.9286   -74.1428     0.6359     0.0000    34.9840     0.0000     0.0000     0.0000     0.0000     0.0000    90.0000     0.0000     1.4633     0.7263     0.7263     0.5485     5.0000     5.0000     0.0000     1.0000   504.9990     0.0000     0.0000   300.000
      3    56.4000     10.000     83.000  20590.000     10.190    96.4440   142.9286   -74.1428     0.6359     0.0000    34.9840     0.0000     0.0000     0.0000     0.0000     0.0000    90.0000     0.0000     1.4681     0.7280     0.7280     0.5521     5.0000     5.0000     0.0000     1.0000   504.9990     0.0000     0.0000   300.000
      4    56.6000     10.000     69.000  20480.000     10.136    96.4440   142.9286   -74.1428     0.6359     0.0000    34.9840     0.0000     0.0000     0.0000     0.0000     0.0000    90.0000     0.0000     1.4729     0.7297     0.7297     0.5557     5.0000     5.0000     0.0000     1.0000   504.9990     0.0000     0.0000   300.000
      5    56.8000     10.000     83.000  20458.000     10.125    96.4440   142.9286   -74.1428     0.6359     0.0000    34.9840     0.0000     0.0000     0.0000     0.0000     0.0000    90.0000     0.0000     1.4776     0.7314     0.7314     0.5593     5.0000     5.0000     0.0000     1.0000   504.9990     0.0000     0.0000   300.000
      6    57.0000     10.000     93.000  20743.000     10.266    96.4440   142.9286   -74.1428     0.6359     0.0000    34.9840     0.0000     0.0000     0.0000     0.0000     0.0000    90.0000     0.0000     1.4824     0.7331     0.7331     0.5629     5.0000     5.0000     0.0000     1.0000   504.9990     0.0000     0.0000   300.000
      7    57.2000     10.000    115.000  20641.000     10.216    96.4440   142.9286   -74.1428     0.6359     0.0000    34.9840     0.0000     0.0000     0.0000     0.0000     0.0000    90.0000     0.0000     1.4872     0.7347     0.7347     0.5665     5.0000     5.0000     0.0000     1.0000   504.9990     0.0000     0.0000   300.000
      8    57.4000     10.000    128.000  20605.000     10.198    96.4440   142.9286   -74.1428     0.6359     0.0000    34.9840     0.0000     0.0000     0.0000     0.0000     0.0000    90.0000     0.0000     1.4919     0.7364     0.7364     0.5701     5.0000     5.0000     0.0000     1.0000   504.9990     0.0000     0.0000   300.000
      9    57.6000     10.000    165.000  20358.000     10.076    96.4440   142.9286   -74.1428     0.6359     0.0000    34.9840     0.0000     0.0000     0.0000     0.0000     0.0000    90.0000     0.0000     1.4967     0.7380     0.7380     0.5738     5.0000     5.0000     0.0000     1.0000   504.9990     0.0000     0.0000   300.000
     10    57.8000     10.000    177.000  20713.000     10.251    96.4440   142.9286   -74.1428     0.6359     0.0000    34.9840     0.0000     0.0000     0.0000     0.0000     0.0000    90.0000     0.0000     1.5014     0.7396     0.7396     0.5774     5.0000     5.0000     0.0000     1.0000   504.9990     0.0000     0.0000   300.000
     11    58.0000     10.000    212.000  20300.000     10.047    96.4440   142.9286   -74.1428     0.6359     0.0000    34.9840     0.0000     0.0000     0.0000     0.0000     0.0000    90.0000     0.0000     1.5062     0.7413     0.7413     0.5811     5.0000     5.0000     0.0000     1.0000   504.9990     0.0000     0.0000   300.000
     12    58.2000     10.000    201.000  20368.000     10.081    96.4440   142.9286   -74.1428     0.6359     0.0000    34.9840     0.0000     0.0000     0.0000     0.0000     0.0000    90.0000     0.0000     1.5109     0.7429     0.7429     0.5847     5.0000     5.0000     0.0000     1.0000   504.9990     0.0000     0.0000   300.000
     13    58.4000     10.000    167.000  20407.000     10.100    96.4440   142.9286   -74.1428     0.6359     0.0000    34.9840     0.0000     0.0000     0.0000     0.0000     0.0000    90.0000     0.0000     1.5157     0.7445     0.7445     0.5884     5.0000     5.0000     0.0000     1.0000   504.9990     0.0000     0.0000   300.000
     14    58.6000     10.000    114.000  20364.000     10.079    96.4440   142.9286   -74.1428     0.6359     0.0000    34.9840     0.0000     0.0000     0.0000     0.0000     0.0000    90.0000     0.0000     1.5204     0.7461     0.7461     0.5921     5.0000     5.0000     0.0000     1.0000   504.9990     0.0000     0.0000   300.000
     15    58.8000     10.000     89.000  20379.000     10.086    96.4440   142.9286   -74.1428     0.6359     0.0000    34.9840     0.0000     0.0000     0.0000     0.0000     0.0000    90.0000     0.0000     1.5251     0.7477     0.7477     0.5958     5.0000     5.0000     0.0000     1.0000   504.9990     0.0000     0.0000   300.000
     16    59.0000     10.000     88.000  20707.000     10.248    96.4440   142.9286   -74.1428     0.6359     0.0000    34.9840     0.0000     0.0000     0.0000     0.0000     0.0000    90.0000     0.0000     1.5298     0.7492     0.7492     0.5995     5.0000     5.0000     0.0000     1.0000   504.9990     0.0000     0.0000   300.000
     17    59.2000     10.000     71.000  20563.000     10.177    96.4440   142.9286   -74.1428     0.6359     0.0000    34.9840     0.0000     0.0000     0.0000     0.0000     0.0000    90.0000     0.0000     1.5346     0.7508     0.7508     0.6032     5.0000     5.0000     0.0000     1.0000   504.9990     0.0000     0.0000   300.000
     18    59.4000     10.000     75.000  20218.000     10.006    96.4440   142.9286   -74.1428     0.6359     0.0000    34.9840     0.0000     0.0000     0.0000     0.0000     0.0000    90.0000     0.0000     1.5393     0.7524     0.7524     0.6069     5.0000     5.0000     0.0000     1.0000   504.9990     0.0000     0.0000   300.000
     19    59.6000      7.546     57.000  15528.000      7.685    96.4440   142.9286   -74.1428     0.6359     0.0000    34.9840     0.0000     0.0000     0.0000     0.0000     0.0000    90.0000     0.0000     1.5440     0.7539     0.7539     0.6106     5.0000     5.0000     0.0000     1.0000   504.9990     0.0000     0.0000   300.000
# Sum of Counts = 2146
# Center of Mass = 57.824138+/-1.765375
# Full Width Half-Maximum = 1.849465+/-0.706357
# 11:11:25 AM  6/21/2012   scan stopped!!
