# raw_file = TPN0080087.nx.hdf
# scan = 80087
# start_time = 2020-03-12 21:26:01
# end_time = 2020-03-13 02:24:15
# proposal = 7733
# experiment = LSNCO
# experiment_number = 1240
# command =
# builtin_command =
# users = Kyle Ma
# local_contact = Kirrily
# scan_title = Inelastic Scan_1p5k
# monochromator = PG
# analyzer = TAS
# sense = -
# collimation = o-40-40-0
# samplename = LNSCO
# sampletype =
# samplemosaic = 0.3
# latticeconstants = 3.755000 3.755000 13.120000 90.000000 90.000000 90.000000
# ubmatrix = 0.256041 -0.073245 0.000000     -0.073245 -0.256041 -0.000000     0.000000 0.000000 -0.076220
# mode = 0
# plane_normal =
# ubconf =
# preset_type = normal
# preset_channel = monitor
# preset_value = 600000.0
# def_x = en
# def_y = detector
# col_headers =
#   Pt.          en           q           h           k           l          ei         vei          ef           e        time    detector     det_err     monitor         mcu          m1    m1_steps   m1_counts    ps_right     ps_left      ps_top   ps_bottom    pa_right     pa_left      pa_top   pa_bottom          m2       mtilt      mtrans     vs_left    vs_right          s1          s2         sgl         sgu         stl         stu          a1          a2      atrans       atilt     ahfocus     avfocus      ptsamp      tfloat        temp        pghf        pgvf        cuhf        cuvf              en      T1_Sensor1      T1_Sensor2      T1_Sensor3      T1_Sensor4    T1_Setpoint1    T1_Setpoint2
      1     -0.0020      1.3589      0.5001      0.6399      0.0000     14.8699     14.8708     14.8719     -0.0020     258.315        1084       32.92      600003      0.0000     20.4633      0.0000      0.0000    -12.5000    -12.5000    -18.0000    -15.0000    -34.1000    -29.3000   -102.5000   -104.0000     40.9292      0.0022     99.0000  -3606.7385     59.8906     53.2704    -29.3836     -2.0015     -0.0004      0.0046     -0.0143     20.4699     40.9264     -0.0006     -0.0065     -0.3516    144.1406      0.0000     28.0000       1.563      0.9668     55.7227     51.6797     75.7617         -0.0020          1.5628          1.7038         28.0000         28.0000          1.0000          1.0000
      2      0.2482      1.3591      0.5001      0.6400      0.0000     15.1200     15.1209     14.8717      0.2482     268.000         707       26.59      600004      0.0000     20.2856      0.0000      0.0000    -12.5000    -12.5000    -18.0000    -15.0000    -34.1000    -29.3000   -102.5000   -104.0000     40.5743      0.0022     99.0000  -3606.7385     59.8906     52.4208    -29.2590     -2.0015     -0.0004      0.0046     -0.0143     20.4699     40.9265     -0.0006     -0.0065     -0.3516    144.1406      0.0000     28.0000       1.572      0.9668     55.7227     51.6797     75.7617          0.2482          1.5717          2.4512         28.0000         28.0000          1.0000          1.0000
      3      0.4982      1.3591      0.5001      0.6400      0.0000     15.3700     15.3709     14.8717      0.4982     285.630         267       16.34      600001      0.0000     20.1137      0.0000      0.0000    -12.5000    -12.5000    -18.0000    -15.0000    -34.1000    -29.3000   -102.5000   -104.0000     40.2286      0.0022     99.0000  -3606.7385     59.8906     51.5790    -29.1255     -2.0015     -0.0004      0.0046     -0.0143     20.4699     40.9266     -0.0006     -0.0065     -0.3516    144.1406      0.0000     28.0000       1.568      0.9668     55.7227     51.6797     75.7617          0.4982          1.5681          2.1890         28.0000         28.0000          1.0000          1.0000
      4      0.7481      1.3590      0.5001      0.6400      0.0000     15.6199     15.6208     14.8717      0.7481     298.483          68        8.25      600001      0.0000     19.9447      0.0000      0.0000    -12.5000    -12.5000    -18.0000    -15.0000    -34.1000    -29.3000   -102.5000   -104.0000     39.8917      0.0022     99.0000  -3606.7385     59.8906     50.7477    -28.9842     -2.0015     -0.0004      0.0046     -0.0143     20.4699     40.9266     -0.0006     -0.0065     -0.3516    144.1406      0.0000     28.0000       1.570      0.9668     55.7227     51.6797     75.7617          0.7481          1.5697          2.0893         28.0000         28.0000          1.0000          1.0000
      5      0.9982      1.3590      0.5001      0.6399      0.0000     15.8699     15.8709     14.8717      0.9982     291.858          13        3.61      600002      0.0000     19.7797      0.0000      0.0000    -12.5000    -12.5000    -18.0000    -15.0000    -34.1000    -29.3000   -102.5000   -104.0000     39.5630      0.0022     99.0000  -3606.7385     59.8906     49.9235    -28.8383     -2.0015     -0.0004      0.0046     -0.0143     20.4699     40.9266     -0.0006     -0.0065     -0.3516    144.1406      0.0000     28.0000       1.568      0.9668     55.7227     51.6797     75.7617          0.9982          1.5677          2.0675         28.0000         28.0000          1.0000          1.0000
      6      1.2481      1.3589      0.5001      0.6399      0.0000     16.1198     16.1208     14.8717      1.2481     284.316          12        3.46      600002      0.0000     19.6195      0.0000      0.0000    -12.5000    -12.5000    -18.0000    -15.0000    -34.1000    -29.3000   -102.5000   -104.0000     39.2424      0.0022     99.0000  -3606.7385     59.8906     49.1074    -28.6872     -2.0015     -0.0004      0.0046     -0.0143     20.4699     40.9267     -0.0006     -0.0065     -0.3516    144.1406      0.0000     28.0000       1.571      0.9668     55.7227     51.6797     75.7617          1.2481          1.5711          2.1344         28.0000         28.0000          1.0000          1.0000
      7      1.4981      1.3589      0.5001      0.6399      0.0000     16.3699     16.3708     14.8717      1.4981     280.087          11        3.32      600001      0.0000     19.4643      0.0000      0.0000    -12.5000    -12.5000    -18.0000    -15.0000    -34.1000    -29.3000   -102.5000   -104.0000     38.9294      0.0022     99.0000  -3606.7385     59.8906     48.2997    -28.5336     -2.0015     -0.0004      0.0046     -0.0143     20.4699     40.9266     -0.0006     -0.0065     -0.3516    144.1406      0.0000     28.0000       1.569      0.9668     55.7227     51.6797     75.7617          1.4981          1.5690          1.7144         28.0000         28.0000          1.0000          1.0000
      8      1.7481      1.3590      0.5001      0.6399      0.0000     16.6199     16.6209     14.8718      1.7481     277.632           7        2.65      600000      0.0000     19.3100      0.0000      0.0000    -12.5000    -12.5000    -18.0000    -15.0000    -34.1000    -29.3000   -102.5000   -104.0000     38.6237      0.0022     99.0000  -3606.7385     59.8906     47.4987    -28.3766     -2.0015     -0.0004      0.0046     -0.0143     20.4699     40.9265     -0.0006     -0.0065     -0.3516    144.1406      0.0000     28.0000       1.570      0.9668     55.7227     51.6797     75.7617          1.7481          1.5700          2.2787         28.0000         28.0000          1.0000          1.0000
      9      1.9980      1.3590      0.5001      0.6399      0.0000     16.8698     16.8708     14.8718      1.9980     275.224           8        2.83      600001      0.0000     19.1615      0.0000      0.0000    -12.5000    -12.5000    -18.0000    -15.0000    -34.1000    -29.3000   -102.5000   -104.0000     38.3253      0.0022     99.0000  -3606.7385     59.8906     46.7043    -28.2136     -2.0015     -0.0004      0.0046     -0.0143     20.4699     40.9264     -0.0006     -0.0065     -0.3516    144.1406      0.0000     28.0000       1.568      0.9668     55.7227     51.6797     75.7617          1.9980          1.5682          1.7570         28.0000         28.0000          1.0000          1.0000
     10      2.2481      1.3590      0.5001      0.6399      0.0000     17.1198     17.1209     14.8718      2.2481     273.686           7        2.65      600003      0.0000     19.0151      0.0000      0.0000    -12.5000    -12.5000    -18.0000    -15.0000    -34.1000    -29.3000   -102.5000   -104.0000     38.0336      0.0022     99.0000  -3606.7385     59.8906     45.9157    -28.0471     -2.0015     -0.0004      0.0046     -0.0143     20.4699     40.9264     -0.0006     -0.0065     -0.3516    144.1406      0.0000     28.0000       1.573      0.9668     55.7227     51.6797     75.7617          2.2481          1.5731          2.0711         28.0000         28.0000          1.0000          1.0000
     11      2.4980      1.3590      0.5001      0.6399      0.0000     17.3699     17.3710     14.8719      2.4980     273.103           9        3.00      600001      0.0000     18.8725      0.0000      0.0000    -12.5000    -12.5000    -18.0000    -15.0000    -34.1000    -29.3000   -102.5000   -104.0000     37.7484      0.0022     99.0000  -3606.7385     59.8906     45.1332    -27.8754     -2.0015     -0.0004      0.0046     -0.0143     20.4699     40.9264     -0.0006     -0.0065     -0.3516    144.1406      0.0000     28.0000       1.569      0.9668     55.7227     51.6797     75.7617          2.4980          1.5689          1.7562         28.0000         28.0000          1.0000          1.0000
     12      2.7480      1.3590      0.5001      0.6400      0.0000     17.6198     17.6209     14.8718      2.7480     272.424          13        3.61      600001      0.0000     18.7328      0.0000      0.0000    -12.5000    -12.5000    -18.0000    -15.0000    -34.1000    -29.3000   -102.5000   -104.0000     37.4696      0.0022     99.0000  -3606.7385     59.8906     44.3569    -27.7005     -2.0015     -0.0004      0.0046     -0.0143     20.4699     40.9265     -0.0006     -0.0065     -0.3516    144.1406      0.0000     28.0000       1.571      0.9668     55.7227     51.6797     75.7617          2.7480          1.5712          2.7559         28.0000         28.0000          1.0000          1.0000
     13      2.9983      1.3590      0.5001      0.6400      0.0000     17.8700     17.8711     14.8717      2.9983     276.072           6        2.45      600003      0.0000     18.5971      0.0000      0.0000    -12.5000    -12.5000    -18.0000    -15.0000    -34.1000    -29.3000   -102.5000   -104.0000     37.1968      0.0022     99.0000  -3606.7385     59.8906     43.5851    -27.5206     -2.0015     -0.0004      0.0046     -0.0143     20.4699     40.9266     -0.0006     -0.0065     -0.3516    144.1406      0.0000     28.0000       1.568      0.9668     55.7227     51.6797     75.7617          2.9983          1.5681          1.7129         28.0000         28.0000          1.0000          1.0000
     14      3.2479      1.3591      0.5001      0.6400      0.0000     18.1197     18.1208     14.8718      3.2479     283.880           4        2.00      600004      0.0000     18.4643      0.0000      0.0000    -12.5000    -12.5000    -18.0000    -15.0000    -34.1000    -29.3000   -102.5000   -104.0000     36.9302      0.0022     99.0000  -3606.7385     59.8906     42.8180    -27.3378     -2.0015     -0.0004      0.0046     -0.0143     20.4699     40.9265     -0.0006     -0.0065     -0.3516    144.1406      0.0000     28.0000       1.570      0.9668     55.7227     51.6797     75.7617          3.2479          1.5701          1.6971         28.0000         28.0000          1.0000          1.0000
     15      3.4979      1.3590      0.5001      0.6399      0.0000     18.3697     18.3708     14.8719      3.4979     284.573          13        3.61      600003      0.0000     18.3334      0.0000      0.0000    -12.5000    -12.5000    -18.0000    -15.0000    -34.1000    -29.3000   -102.5000   -104.0000     36.6690      0.0022     99.0000  -3606.7385     59.8906     42.0561    -27.1497     -2.0015     -0.0004      0.0046     -0.0143     20.4699     40.9265     -0.0006     -0.0065     -0.3516    144.1406      0.0000     28.0000       1.569      0.9668     55.7227     51.6797     75.7617          3.4979          1.5692          1.7702         28.0000         28.0000          1.0000          1.0000
     16      3.7481      1.3591      0.5001      0.6400      0.0000     18.6199     18.6211     14.8719      3.7481     279.940           9        3.00      600002      0.0000     18.2065      0.0000      0.0000    -12.5000    -12.5000    -18.0000    -15.0000    -34.1000    -29.3000   -102.5000   -104.0000     36.4131      0.0022     99.0000  -3606.7385     59.8906     41.2973    -26.9590     -2.0015     -0.0004      0.0046     -0.0143     20.4699     40.9265     -0.0006     -0.0065     -0.3516    144.1406      0.0000     28.0000       1.571      0.9668     55.7227     51.6797     75.7617          3.7481          1.5706          2.3469         28.0000         28.0000          1.0000          1.0000
     17      3.9982      1.3590      0.5001      0.6399      0.0000     18.8700     18.8711     14.8718      3.9982     273.794           8        2.83      600000      0.0000     18.0805      0.0000      0.0000    -12.5000    -12.5000    -18.0000    -15.0000    -34.1000    -29.3000   -102.5000   -104.0000     36.1627      0.0022     99.0000  -3606.7385     59.8906     40.5429    -26.7626     -2.0015     -0.0004      0.0046     -0.0143     20.4699     40.9265     -0.0006     -0.0065     -0.3516    144.1406      0.0000     28.0000       1.567      0.9668     55.7227     51.6797     75.7617          3.9982          1.5671          2.2587         28.0000         28.0000          1.0000          1.0000
     18      4.2482      1.3590      0.5001      0.6399      0.0000     19.1199     19.1211     14.8718      4.2482     272.319           6        2.45      600001      0.0000     17.9584      0.0000      0.0000    -12.5000    -12.5000    -18.0000    -15.0000    -34.1000    -29.3000   -102.5000   -104.0000     35.9174      0.0022     99.0000  -3606.7385     59.8906     39.7912    -26.5638     -2.0015     -0.0004      0.0046     -0.0143     20.4699     40.9265     -0.0006     -0.0065     -0.3516    144.1406      0.0000     28.0000       1.569      0.9668     55.7227     51.6797     75.7617          4.2482          1.5693          2.9716         28.0000         28.0000          1.0000          1.0000
     19      4.4982      1.3589      0.5001      0.6399      0.0000     19.3700     19.3711     14.8718      4.4982     277.787           6        2.45      600001      0.0000     17.8383      0.0000      0.0000    -12.5000    -12.5000    -18.0000    -15.0000    -34.1000    -29.3000   -102.5000   -104.0000     35.6770      0.0022     99.0000  -3606.7385     59.8906     39.0444    -26.3587     -2.0015     -0.0004      0.0046     -0.0143     20.4699     40.9265     -0.0006     -0.0065     -0.3516    144.1406      0.0000     28.0000       1.567      0.9668     55.7227     51.6797     75.7617          4.4982          1.5674          2.6495         28.0000         28.0000          1.0000          1.0000
     20      4.7481      1.3590      0.5001      0.6399      0.0000     19.6200     19.6211     14.8719      4.7481     286.941          10        3.16      600000      0.0000     17.7201      0.0000      0.0000    -12.5000    -12.5000    -18.0000    -15.0000    -34.1000    -29.3000   -102.5000   -104.0000     35.4414      0.0022     99.0000  -3606.7385     59.8906     38.2992    -26.1558     -2.0015     -0.0004      0.0046     -0.0143     20.4699     40.9265     -0.0006     -0.0065     -0.3516    144.1406      0.0000     28.0000       1.573      0.9668     55.7227     51.6797     75.7617          4.7481          1.5727          1.7688         28.0000         28.0000          1.0000          1.0000
     21      4.9981      1.3590      0.5001      0.6399      0.0000     19.8700     19.8712     14.8718      4.9981     295.845           7        2.65      600000      0.0000     17.6039      0.0000      0.0000    -12.5000    -12.5000    -18.0000    -15.0000    -34.1000    -29.3000   -102.5000   -104.0000     35.2104      0.0022     99.0000  -3606.7385     59.8906     37.5573    -25.9454     -2.0015     -0.0004      0.0046     -0.0143     20.4699     40.9265     -0.0006     -0.0065     -0.3516    144.1406      0.0000     28.0000       1.567      0.9668     55.7227     51.6797     75.7617          4.9981          1.5675          1.8349         28.0000         28.0000          1.0000          1.0000
     22      5.2480      1.3590      0.5001      0.6399      0.0000     20.1198     20.1210     14.8718      5.2480     297.546          14        3.74      600000      0.0000     17.4916      0.0000      0.0000    -12.5000    -12.5000    -18.0000    -15.0000    -34.1000    -29.3000   -102.5000   -104.0000     34.9840      0.0022     99.0000  -3606.7385     59.8906     36.8173    -25.7325     -2.0015     -0.0004      0.0046     -0.0143     20.4699     40.9265     -0.0006     -0.0065     -0.3516    144.1406      0.0000     28.0000       1.572      0.9668     55.7227     51.6797     75.7617          5.2480          1.5723          1.7823         28.0000         28.0000          1.0000          1.0000
     23      5.4981      1.3590      0.5001      0.6399      0.0000     20.3698     20.3710     14.8718      5.4981     291.585           5        2.24      600001      0.0000     17.3803      0.0000      0.0000    -12.5000    -12.5000    -18.0000    -15.0000    -34.1000    -29.3000   -102.5000   -104.0000     34.7617      0.0022     99.0000  -3606.7385     59.8906     36.0803    -25.5154     -2.0015     -0.0004      0.0046     -0.0143     20.4699     40.9265     -0.0006     -0.0065     -0.3516    144.1406      0.0000     28.0000       1.570      0.9668     55.7227     51.6797     75.7617          5.4981          1.5697          2.3281         28.0000         28.0000          1.0000          1.0000
     24      5.7480      1.3590      0.5001      0.6399      0.0000     20.6198     20.6211     14.8718      5.7480     285.087          13        3.61      600001      0.0000     17.2709      0.0000      0.0000    -12.5000    -12.5000    -18.0000    -15.0000    -34.1000    -29.3000   -102.5000   -104.0000     34.5437      0.0022     99.0000  -3606.7385     59.8906     35.3444    -25.2960     -2.0015     -0.0004      0.0046     -0.0143     20.4699     40.9265     -0.0006     -0.0065     -0.3516    144.1406      0.0000     28.0000       1.570      0.9668     55.7227     51.6797     75.7617          5.7480          1.5700          2.8247         28.0000         28.0000          1.0000          1.0000
     25      5.9979      1.3590      0.5001      0.6399      0.0000     20.8697     20.8709     14.8718      5.9979     281.036           7        2.65      600000      0.0000     17.1645      0.0000      0.0000    -12.5000    -12.5000    -18.0000    -15.0000    -34.1000    -29.3000   -102.5000   -104.0000     34.3298      0.0022     99.0000  -3606.7385     59.8906     34.6100    -25.0720     -2.0015     -0.0004      0.0046     -0.0143     20.4699     40.9265     -0.0006     -0.0065     -0.3516    144.1406      0.0000     28.0000       1.568      0.9668     55.7227     51.6797     75.7617          5.9979          1.5682          2.2173         28.0000         28.0000          1.0000          1.0000
     26      6.2482      1.3590      0.5001      0.6399      0.0000     21.1200     21.1212     14.8718      6.2482     276.656           8        2.83      600002      0.0000     17.0580      0.0000      0.0000    -12.5000    -12.5000    -18.0000    -15.0000    -34.1000    -29.3000   -102.5000   -104.0000     34.1195      0.0022     99.0000  -3606.7385     59.8906     33.8766    -24.8441     -2.0015     -0.0004      0.0046     -0.0143     20.4699     40.9265     -0.0006     -0.0065     -0.3516    144.1406      0.0000     28.0000       1.572      0.9668     55.7227     51.6797     75.7617          6.2482          1.5724          1.7575         28.0000         28.0000          1.0000          1.0000
