# scan = 22
# date = 10/25/2024
# time = 3:03:38 PM
# proposal = 34735
# experiment = Magnons and paramagnon coupling in MnTe
# experiment_number = 823
# command = scan bab 0 24 2
# builtin_command = scan bab 0 24 2
# users = Benjamin Frandsen, Songxue Chi, George Yumnam, Huibo Cao, Michael Manley, Raphael Hermann, Eleanor Clements
# local_contact = Eleanor Clements
# scan_title = slit scan with (002)
# monochromator = PG002
# analyzer = Pg002
# sense = -+-
# collimation = 48-40-40-120
# samplename = MnTe
# sampletype = crystal
# samplemosaic = 30.000000
# latticeconstants = 4.134649,4.134649,6.711306,90.000000,90.000000,120.000000
# ubmatrix = 0.011783,0.001670,-0.148847,0.279025,0.139513,0.006287,-0.000206,-0.241924,0.002598
# mode = 0
# plane_normal = 0.017452,-0.000000,0.999842
# ubconf = UB25Oct2024_25426PM.ini
# preset_type = normal 
# preset_channel = time
# preset_value = 1.000000
# def_x = bab
# def_y = detector
# col_headers = 
#   Pt.        bab       time   detector    monitor        mcu focal_length         m1         m2   mcrystal       marc     mtrans     mfocus         s1         s2        sgl        sgu        bbb        bbl        bbr        bbt        bal        bar        bat        stl        stu         a1         a2          q          h          k          l         ei         ef          e        vti     sample       temp     temp_2
      1     0.0000      1.000   6033.000   2568.000      0.616    66.7975   -20.0773   -41.1660   120.0962    -0.1480    -3.0001   -34.2897    22.9976    41.1583    -0.9988     0.0015    34.0000    34.0000    34.0000    34.0000    34.0000    34.0000    34.0000    -2.0000     2.0025   159.4167   -41.1662     1.8724    -0.0000     0.0000     2.0000    14.7002    14.7000     0.0002   300.1040   300.1990   300.0000   300.000
      2     2.0000      1.000   7443.000   2635.000      0.632    66.7975   -20.0773   -41.1660   120.0962    -0.1480    -3.0001   -34.2897    22.9976    41.1583    -0.9988     0.0015    34.0000    34.0000    34.0000    34.0000    34.0000    34.0000    34.0000    -2.0000     2.0025   159.4167   -41.1662     1.8724    -0.0000     0.0000     2.0000    14.7002    14.7000     0.0002   300.1030   300.1950   300.0000   300.000
      3     4.0000      1.000   9290.000   2654.000      0.637    66.7975   -20.0773   -41.1660   120.0962    -0.1480    -3.0001   -34.2897    22.9976    41.1583    -0.9988     0.0015    34.0000    34.0000    34.0000    34.0000    34.0000    34.0000    34.0000    -2.0000     2.0025   159.4167   -41.1662     1.8724    -0.0000     0.0000     2.0000    14.7002    14.7000     0.0002   300.0960   300.1930   300.0000   300.000
      4     6.0000      1.000   9889.000   2616.000      0.627    66.7975   -20.0773   -41.1660   120.0962    -0.1480    -3.0001   -34.2897    22.9976    41.1583    -0.9988     0.0015    34.0000    34.0000    34.0000    34.0000    34.0000    34.0000    34.0000    -2.0000     2.0025   159.4167   -41.1662     1.8724    -0.0000     0.0000     2.0000    14.7002    14.7000     0.0002   300.0920   300.1900   300.0000   300.000
      5     8.0000      1.000  11836.000   2645.000      0.634    66.7975   -20.0773   -41.1660   120.0962    -0.1480    -3.0001   -34.2897    22.9976    41.1583    -0.9988     0.0015    34.0000    34.0000    34.0000    34.0000    34.0000    34.0000    34.0000    -2.0000     2.0025   159.4167   -41.1662     1.8724    -0.0000     0.0000     2.0000    14.7002    14.7000     0.0002   300.0870   300.1860   300.0000   300.000
      6    10.0000      1.000  13420.000   2745.000      0.658    66.7975   -20.0773   -41.1660   120.0962    -0.1480    -3.0001   -34.2897    22.9976    41.1583    -0.9988     0.0015    34.0000    34.0000    34.0000    34.0000    34.0000    34.0000    34.0000    -2.0000     2.0025   159.4167   -41.1662     1.8724    -0.0000     0.0000     2.0000    14.7002    14.7000     0.0002   300.0830   300.1840   300.0000   300.000
      7    12.0000      1.000  14547.000   2589.000      0.621    66.7975   -20.0773   -41.1660   120.0962    -0.1480    -3.0001   -34.2897    22.9976    41.1583    -0.9988     0.0015    34.0000    34.0000    34.0000    34.0000    34.0000    34.0000    34.0000    -2.0000     2.0025   159.4167   -41.1662     1.8724    -0.0000     0.0000     2.0000    14.7002    14.7000     0.0002   300.0770   300.1800   300.0000   300.000
      8    14.0000      1.000  15272.000   2583.000      0.620    66.7975   -20.0773   -41.1660   120.0962    -0.1480    -3.0001   -34.2897    22.9976    41.1583    -0.9988     0.0015    34.0000    34.0000    34.0000    34.0000    34.0000    34.0000    34.0000    -2.0000     2.0025   159.4167   -41.1662     1.8724    -0.0000     0.0000     2.0000    14.7002    14.7000     0.0002   300.0720   300.1780   300.0000   300.000
      9    16.0000      1.000  16477.000   2651.000      0.636    66.7975   -20.0773   -41.1660   120.0962    -0.1480    -3.0001   -34.2897    22.9976    41.1583    -0.9988     0.0015    34.0000    34.0000    34.0000    34.0000    34.0000    34.0000    34.0000    -2.0000     2.0025   159.4167   -41.1662     1.8724    -0.0000     0.0000     2.0000    14.7002    14.7000     0.0002   300.0680   300.1750   300.0000   300.000
     10    18.0000      1.000  16809.000   2620.000      0.628    66.7975   -20.0773   -41.1660   120.0962    -0.1480    -3.0001   -34.2897    22.9976    41.1583    -0.9988     0.0015    34.0000    34.0000    34.0000    34.0000    34.0000    34.0000    34.0000    -2.0000     2.0025   159.4167   -41.1662     1.8724    -0.0000     0.0000     2.0000    14.7002    14.7000     0.0002   300.0620   300.1720   300.0000   300.000
     11    20.0000      1.000  16696.000   2674.000      0.641    66.7975   -20.0773   -41.1660   120.0962    -0.1480    -3.0001   -34.2897    22.9976    41.1583    -0.9988     0.0015    34.0000    34.0000    34.0000    34.0000    34.0000    34.0000    34.0000    -2.0000     2.0025   159.4167   -41.1662     1.8724    -0.0000     0.0000     2.0000    14.7002    14.7000     0.0002   300.0580   300.1690   300.0000   300.000
     12    22.0000      1.000  16728.000   2578.000      0.618    66.7975   -20.0773   -41.1660   120.0962    -0.1480    -3.0001   -34.2897    22.9976    41.1583    -0.9988     0.0015    34.0000    34.0000    34.0000    34.0000    34.0000    34.0000    34.0000    -2.0000     2.0025   159.4167   -41.1662     1.8724    -0.0000     0.0000     2.0000    14.7002    14.7000     0.0002   300.0550   300.1660   300.0000   300.000
     13    24.0000      1.000  16694.000   2678.000      0.642    66.7975   -20.0773   -41.1660   120.0962    -0.1480    -3.0001   -34.2897    22.9976    41.1583    -0.9988     0.0015    34.0000    34.0000    34.0000    34.0000    34.0000    34.0000    34.0000    -2.0000     2.0025   159.4167   -41.1662     1.8724    -0.0000     0.0000     2.0000    14.7002    14.7000     0.0002   300.0510   300.1620   300.0000   300.000
# Sum of Counts = 171134
# Center of Mass = 14.009057+/-0.050727
# Full Width Half-Maximum = 13.836668+/-0.039827
# 3:05:03 PM  10/25/2024   scan completed.
