# scan = 87
# date = 10/25/2024
# time = 11:59:54 PM
# proposal = 34735
# experiment = Magnons and paramagnon coupling in MnTe
# experiment_number = 823
# command = scan h 1.0 k 0.0 l 1.0 e 30.0 2.0 0.25 ef 14.7 preset mcu 120
# builtin_command = scan h 1.0 k 0.0 l 1.0 e 30.0 2.0 0.25 ef 14.7 preset mcu 120
# users = Benjamin Frandsen, Songxue Chi, George Yumnam, Huibo Cao, Michael Manley, Raphael Hermann, Eleanor Clements
# local_contact = Eleanor Clements
# scan_title = Scans H0L = (1.0, 0, 1.0) to (1.5, 0, 0.5) - Transverse at (1.0, 0.0, 1.0) 
# monochromator = PG002
# analyzer = Pg002
# sense = -+-
# collimation = 48-40-40-120
# samplename = MnTe
# sampletype = crystal
# samplemosaic = 30.000000
# latticeconstants = 4.113532,4.113532,6.656209,90.000000,90.000000,120.000000
# ubmatrix = 0.008885,0.000200,-0.150137,0.280567,0.140284,0.004756,-0.000155,-0.243141,0.002621
# mode = 0
# plane_normal = 0.017452,-0.000000,0.999848
# ubconf = UB25Oct2024_84509PM.ini
# preset_type = normal 
# preset_channel = mcu
# preset_value = 120.000000
# def_x = e
# def_y = detector
# col_headers = 
#   Pt.          h          k          l          e         ef       time   detector    monitor        mcu focal_length         m1         m2   mcrystal       marc     mtrans     mfocus         s1         s2        sgl        sgu        bbb        bbl        bbr        bbt        bab        bal        bar        bat        stl        stu         a1         a2          q         ei        vti     sample       temp     temp_2
      1     1.0001     0.0000     1.0001    30.0027    14.7000    147.950     26.000 500281.000    120.000    38.3059   -20.0773   -23.2615   120.0962    -0.1480    -3.0001   -62.2448   147.6289     4.5254    -0.9995     0.0015    14.0000     4.0000     4.0000     2.0000    16.0000     4.0000     6.0000    10.0000    -2.0005     2.0025   159.4167   -41.1662     2.0006    44.7026     4.9958     4.9994     5.0000     5.000
      2     1.0000     0.0000     1.0000    29.7497    14.7000    145.974     15.000 500281.000    120.000    38.4134   -20.0773   -23.3285   120.0962    -0.1480    -3.0001   -62.0538   145.8585     5.8512    -0.9995     0.0015    14.0000     4.0000     4.0000     2.0000    16.0000     4.0000     6.0000    10.0000    -2.0005     2.0025   159.4167   -41.1662     2.0005    44.4497     4.9979     5.0018     5.0000     5.000
      3     1.0000     0.0000     1.0000    29.5004    14.7000    144.606     28.000 500281.000    120.000    38.5219   -20.0773   -23.3952   120.0962    -0.1480    -3.0001   -61.8623   144.4158     6.9288    -0.9995     0.0015    14.0000     4.0000     4.0000     2.0000    16.0000     4.0000     6.0000    10.0000    -2.0005     2.0025   159.4167   -41.1662     2.0005    44.2004     4.9982     4.9964     5.0000     5.000
      4     1.0000     0.0000     0.9999    29.2490    14.7000    143.369     18.000 500281.000    120.000    38.6313   -20.0773   -23.4629   120.0962    -0.1480    -3.0001   -61.6704   143.1639     7.8632    -0.9995     0.0015    14.0000     4.0000     4.0000     2.0000    16.0000     4.0000     6.0000    10.0000    -2.0005     2.0025   159.4167   -41.1662     2.0004    43.9490     5.0003     4.9934     5.0000     5.000
      5     1.0000     0.0000     1.0000    29.0002    14.7000    143.029     15.000 500281.000    120.000    38.7417   -20.0773   -23.5306   120.0962    -0.1480    -3.0001   -61.4781   142.0410     8.6979    -0.9995     0.0015    14.0000     4.0000     4.0000     2.0000    16.0000     4.0000     6.0000    10.0000    -2.0005     2.0025   159.4167   -41.1662     2.0004    43.7002     4.9988     5.0013     5.0000     5.000
      6     1.0000     0.0000     1.0000    28.7500    14.7000    142.515     18.000 500281.000    120.000    38.8530   -20.0773   -23.5992   120.0962    -0.1480    -3.0001   -61.2854   141.0131     9.4634    -0.9995     0.0015    14.0000     4.0000     4.0000     2.0000    16.0000     4.0000     6.0000    10.0000    -2.0005     2.0025   159.4167   -41.1662     2.0005    43.4500     4.9933     5.0013     5.0000     5.000
      7     1.0000     0.0000     1.0000    28.4999    14.7000    141.940     23.000 500281.000    120.000    38.9652   -20.0773   -23.6684   120.0962    -0.1480    -3.0001   -61.0922   140.0576    10.1740    -0.9995     0.0015    14.0000     4.0000     4.0000     2.0000    16.0000     4.0000     6.0000    10.0000    -2.0005     2.0025   159.4167   -41.1662     2.0005    43.1999     4.9988     4.9990     5.0000     5.000
      8     1.0000     0.0000     1.0000    28.2505    14.7000    141.684     25.000 500281.000    120.000    39.0785   -20.0773   -23.7380   120.0962    -0.1480    -3.0001   -60.8985   139.1608    10.8382    -0.9995     0.0015    14.0000     4.0000     4.0000     2.0000    16.0000     4.0000     6.0000    10.0000    -2.0005     2.0025   159.4167   -41.1662     2.0005    42.9505     4.9987     4.9979     5.0000     5.000
      9     1.0000     0.0000     1.0000    27.9998    14.7000    141.114     22.000 500281.000    120.000    39.1927   -20.0773   -23.8086   120.0962    -0.1480    -3.0001   -60.7044   138.3129    11.4650    -0.9995     0.0015    14.0000     4.0000     4.0000     2.0000    16.0000     4.0000     6.0000    10.0000    -2.0005     2.0025   159.4167   -41.1662     2.0005    42.6998     5.0071     5.0026     5.0000     5.000
     10     1.0000     0.0000     1.0000    27.7496    14.7000    140.222     24.000 500281.000    120.000    39.3079   -20.0773   -23.8797   120.0962    -0.1480    -3.0001   -60.5098   137.5048    12.0612    -0.9995     0.0015    14.0000     4.0000     4.0000     2.0000    16.0000     4.0000     6.0000    10.0000    -2.0005     2.0025   159.4167   -41.1662     2.0004    42.4496     4.9967     5.0003     5.0000     5.000
     11     1.0000     0.0000     1.0000    27.4999    14.7000    139.720     31.000 500281.000    120.000    39.4242   -20.0773   -23.9513   120.0962    -0.1480    -3.0001   -60.3147   136.7318    12.6319    -0.9995     0.0015    14.0000     4.0000     4.0000     2.0000    16.0000     4.0000     6.0000    10.0000    -2.0005     2.0025   159.4167   -41.1662     2.0005    42.1999     5.0010     4.9979     5.0000     5.000
     12     1.0000     0.0000     1.0000    27.2502    14.7000    138.183     30.000 500281.000    120.000    39.5415   -20.0773   -24.0235   120.0962    -0.1480    -3.0001   -60.1192   135.9888    13.1788    -0.9995     0.0015    14.0000     4.0000     4.0000     2.0000    16.0000     4.0000     6.0000    10.0000    -2.0005     2.0025   159.4167   -41.1662     2.0005    41.9502     5.0044     4.9966     5.0000     5.000
     13     0.9999     0.0000     1.0000    26.9999    14.7000    137.146     23.000 500281.000    120.000    39.6598   -20.0773   -24.0966   120.0962    -0.1480    -3.0001   -59.9232   135.2724    13.7018    -0.9995     0.0015    14.0000     4.0000     4.0000     2.0000    16.0000     4.0000     6.0000    10.0000    -2.0005     2.0025   159.4167   -41.1662     2.0004    41.6999     4.9943     4.9989     5.0000     5.000
     14     1.0000     0.0000     1.0000    26.7502    14.7000    135.310     21.000 500281.000    120.000    39.7792   -20.0773   -24.1702   120.0962    -0.1480    -3.0001   -59.7267   134.5790    14.2140    -0.9995     0.0015    14.0000     4.0000     4.0000     2.0000    16.0000     4.0000     6.0000    10.0000    -2.0005     2.0025   159.4167   -41.1662     2.0005    41.4502     5.0059     4.9985     5.0000     5.000
     15     1.0000     0.0000     1.0000    26.5000    14.7000    133.725     29.000 500281.000    120.000    39.8998   -20.0773   -24.2446   120.0962    -0.1480    -3.0001   -59.5297   133.9069    14.7026    -0.9995     0.0015    14.0000     4.0000     4.0000     2.0000    16.0000     4.0000     6.0000    10.0000    -2.0005     2.0025   159.4167   -41.1662     2.0004    41.2000     5.0045     5.0004     5.0000     5.000
     16     1.0000     0.0000     1.0000    26.2505    14.7000    132.096     40.000 500281.000    120.000    40.0214   -20.0773   -24.3194   120.0962    -0.1480    -3.0001   -59.3323   133.2536    15.1815    -0.9995     0.0015    14.0000     4.0000     4.0000     2.0000    16.0000     4.0000     6.0000    10.0000    -2.0005     2.0025   159.4167   -41.1662     2.0005    40.9505     5.0041     4.9940     5.0000     5.000
     17     1.0000     0.0000     1.0000    25.9998    14.7000    130.935     28.000 500281.000    120.000    40.1441   -20.0773   -24.3954   120.0962    -0.1480    -3.0001   -59.1343   132.6174    15.6453    -0.9995     0.0015    14.0000     4.0000     4.0000     2.0000    16.0000     4.0000     6.0000    10.0000    -2.0005     2.0025   159.4167   -41.1662     2.0005    40.6998     5.0052     4.9975     5.0000     5.000
     18     1.0000     0.0000     1.0000    25.7501    14.7000    129.659     22.000 500281.000    120.000    40.2680   -20.0773   -24.4717   120.0962    -0.1480    -3.0001   -58.9359   131.9960    16.0949    -0.9995     0.0015    14.0000     4.0000     4.0000     2.0000    16.0000     4.0000     6.0000    10.0000    -2.0005     2.0025   159.4167   -41.1662     2.0004    40.4501     5.0034     5.0013     5.0000     5.000
     19     1.0000     0.0000     1.0000    25.5008    14.7000    129.116     39.000 500281.000    120.000    40.3930   -20.0773   -24.5487   120.0962    -0.1480    -3.0001   -58.7370   131.3897    16.5362    -0.9995     0.0015    14.0000     4.0000     4.0000     2.0000    16.0000     4.0000     6.0000    10.0000    -2.0005     2.0025   159.4167   -41.1662     2.0005    40.2008     5.0062     4.9985     5.0000     5.000
     20     1.0000     0.0000     1.0000    25.2494    14.7000    128.214     45.000 500281.000    120.000    40.5192   -20.0773   -24.6270   120.0962    -0.1480    -3.0001   -58.5375   130.7957    16.9666    -0.9995     0.0015    14.0000     4.0000     4.0000     2.0000    16.0000     4.0000     6.0000    10.0000    -2.0005     2.0025   159.4167   -41.1662     2.0004    39.9494     5.0004     4.9939     5.0000     5.000
     21     1.0000     0.0000     0.9999    24.9997    14.7000    127.727     33.000 500281.000    120.000    40.6465   -20.0773   -24.7055   120.0962    -0.1480    -3.0001   -58.3375   130.2142    17.3882    -0.9995     0.0015    14.0000     4.0000     4.0000     2.0000    16.0000     4.0000     6.0000    10.0000    -2.0005     2.0025   159.4167   -41.1662     2.0005    39.6997     4.9984     5.0003     5.0000     5.000
     22     1.0000     0.0000     1.0000    24.7503    14.7000    127.788     37.000 500281.000    120.000    40.7751   -20.0773   -24.7847   120.0962    -0.1480    -3.0001   -58.1370   129.6431    17.7988    -0.9995     0.0015    14.0000     4.0000     4.0000     2.0000    16.0000     4.0000     6.0000    10.0000    -2.0005     2.0025   159.4167   -41.1662     2.0005    39.4503     5.0060     4.9997     5.0000     5.000
     23     1.0000     0.0000     1.0000    24.5003    14.7000    127.899     49.000 500281.000    120.000    40.9049   -20.0773   -24.8649   120.0962    -0.1480    -3.0001   -57.9360   129.0829    18.2040    -0.9995     0.0015    14.0000     4.0000     4.0000     2.0000    16.0000     4.0000     6.0000    10.0000    -2.0005     2.0025   159.4167   -41.1662     2.0005    39.2003     5.0024     4.9977     5.0000     5.000
     24     1.0000     0.0000     1.0000    24.2504    14.7000    128.112     49.000 500281.000    120.000    41.0360   -20.0773   -24.9458   120.0962    -0.1480    -3.0001   -57.7345   128.5316    18.5985    -0.9995     0.0015    14.0000     4.0000     4.0000     2.0000    16.0000     4.0000     6.0000    10.0000    -2.0005     2.0025   159.4167   -41.1662     2.0005    38.9504     4.9937     4.9975     5.0000     5.000
     25     1.0000     0.0000     0.9999    23.9991    14.7000    128.692     44.000 500281.000    120.000    41.1683   -20.0773   -25.0280   120.0962    -0.1480    -3.0001   -57.5324   127.9898    18.9892    -0.9995     0.0015    14.0000     4.0000     4.0000     2.0000    16.0000     4.0000     6.0000    10.0000    -2.0005     2.0025   159.4167   -41.1662     2.0005    38.6991     5.0074     4.9987     5.0000     5.000
     26     1.0000     0.0000     1.0000    23.7505    14.7000    129.662     47.000 500281.000    120.000    41.3020   -20.0773   -25.1101   120.0962    -0.1480    -3.0001   -57.3298   127.4556    19.3689    -0.9995     0.0015    14.0000     4.0000     4.0000     2.0000    16.0000     4.0000     6.0000    10.0000    -2.0005     2.0025   159.4167   -41.1662     2.0005    38.4505     5.0033     5.0003     5.0000     5.000
     27     1.0000     0.0000     1.0000    23.4994    14.7000    130.483     44.000 500281.000    120.000    41.4369   -20.0773   -25.1938   120.0962    -0.1480    -3.0001   -57.1267   126.9299    19.7429    -0.9995     0.0015    14.0000     4.0000     4.0000     2.0000    16.0000     4.0000     6.0000    10.0000    -2.0005     2.0025   159.4167   -41.1662     2.0004    38.1994     5.0059     5.0015     5.0000     5.000
     28     1.0000     0.0000     1.0000    23.2502    14.7000    132.295     42.000 500281.000    120.000    41.5732   -20.0773   -25.2778   120.0962    -0.1480    -3.0001   -56.9230   126.4106    20.1120    -0.9995     0.0015    14.0000     4.0000     4.0000     2.0000    16.0000     4.0000     6.0000    10.0000    -2.0005     2.0025   159.4167   -41.1662     2.0005    37.9502     4.9962     5.0020     5.0000     5.000
     29     1.0000     0.0000     1.0000    23.0001    14.7000    133.530     32.000 500281.000    120.000    41.7108   -20.0773   -25.3629   120.0962    -0.1480    -3.0001   -56.7188   125.8991    20.4752    -0.9995     0.0015    14.0000     4.0000     4.0000     2.0000    16.0000     4.0000     6.0000    10.0000    -2.0005     2.0025   159.4167   -41.1662     2.0004    37.7001     5.0000     5.0050     5.0000     5.000
     30     1.0000     0.0000     1.0000    22.7507    14.7000    135.155     38.000 500281.000    120.000    41.8497   -20.0773   -25.4486   120.0962    -0.1480    -3.0001   -56.5140   125.3933    20.8362    -0.9995     0.0015    14.0000     4.0000     4.0000     2.0000    16.0000     4.0000     6.0000    10.0000    -2.0005     2.0025   159.4167   -41.1662     2.0006    37.4507     5.0041     4.9990     5.0000     5.000
     31     1.0000     0.0000     1.0000    22.4999    14.7000    136.276     37.000 500281.000    120.000    41.9902   -20.0773   -25.5357   120.0962    -0.1480    -3.0001   -56.3086   124.8937    21.1894    -0.9995     0.0015    14.0000     4.0000     4.0000     2.0000    16.0000     4.0000     6.0000    10.0000    -2.0005     2.0025   159.4167   -41.1662     2.0005    37.1999     5.0049     5.0001     5.0000     5.000
     32     1.0000     0.0000     1.0000    22.2501    14.7000    137.426     31.000 500281.000    120.000    42.1320   -20.0773   -25.6233   120.0962    -0.1480    -3.0001   -56.1026   124.3995    21.5349    -0.9995     0.0015    14.0000     4.0000     4.0000     2.0000    16.0000     4.0000     6.0000    10.0000    -2.0005     2.0025   159.4167   -41.1662     2.0004    36.9501     5.0034     5.0001     5.0000     5.000
     33     0.9999     0.0000     1.0000    21.9999    14.7000    138.422     34.000 500281.000    120.000    42.2752   -20.0773   -25.7120   120.0962    -0.1480    -3.0001   -55.8961   123.9111    21.8786    -0.9995     0.0015    14.0000     4.0000     4.0000     2.0000    16.0000     4.0000     6.0000    10.0000    -2.0005     2.0025   159.4167   -41.1662     2.0004    36.6999     5.0000     4.9986     5.0000     5.000
     34     1.0000     0.0000     1.0000    21.7499    14.7000    139.761     38.000 500281.000    120.000    42.4200   -20.0773   -25.8015   120.0962    -0.1480    -3.0001   -55.6890   123.4279    22.2211    -0.9995     0.0015    14.0000     4.0000     4.0000     2.0000    16.0000     4.0000     6.0000    10.0000    -2.0005     2.0025   159.4167   -41.1662     2.0005    36.4499     5.0029     4.9988     5.0000     5.000
     35     1.0000     0.0000     1.0000    21.5000    14.7000    140.316     39.000 500281.000    120.000    42.5662   -20.0773   -25.8920   120.0962    -0.1480    -3.0001   -55.4813   122.9493    22.5544    -0.9995     0.0015    14.0000     4.0000     4.0000     2.0000    16.0000     4.0000     6.0000    10.0000    -2.0005     2.0025   159.4167   -41.1662     2.0005    36.2000     5.0000     5.0025     5.0000     5.000
     36     1.0000     0.0000     1.0000    21.2499    14.7000    140.065     29.000 500281.000    120.000    42.7139   -20.0773   -25.9835   120.0962    -0.1480    -3.0001   -55.2730   122.4749    22.8845    -0.9995     0.0015    14.0000     4.0000     4.0000     2.0000    16.0000     4.0000     6.0000    10.0000    -2.0005     2.0025   159.4167   -41.1662     2.0004    35.9499     5.0048     5.0022     5.0000     5.000
     37     1.0000     0.0000     1.0000    20.9994    14.7000    140.841     34.000 500281.000    120.000    42.8632   -20.0773   -26.0761   120.0962    -0.1480    -3.0001   -55.0642   122.0050    23.2138    -0.9995     0.0015    14.0000     4.0000     4.0000     2.0000    16.0000     4.0000     6.0000    10.0000    -2.0005     2.0025   159.4167   -41.1662     2.0005    35.6993     4.9996     4.9983     5.0000     5.000
     38     1.0000     0.0000     1.0000    20.7501    14.7000    140.813     40.000 500281.000    120.000    43.0141   -20.0773   -26.1692   120.0962    -0.1480    -3.0001   -54.8546   121.5394    23.5361    -0.9995     0.0015    14.0000     4.0000     4.0000     2.0000    16.0000     4.0000     6.0000    10.0000    -2.0005     2.0025   159.4167   -41.1662     2.0005    35.4501     5.0072     5.0026     5.0000     5.000
     39     1.0000     0.0000     1.0000    20.5000    14.7000    140.766     39.000 500281.000    120.000    43.1666   -20.0773   -26.2637   120.0962    -0.1480    -3.0001   -54.6446   121.0774    23.8575    -0.9995     0.0015    14.0000     4.0000     4.0000     2.0000    16.0000     4.0000     6.0000    10.0000    -2.0005     2.0025   159.4167   -41.1662     2.0005    35.2000     5.0058     5.0041     5.0000     5.000
     40     1.0000     0.0000     1.0000    20.2499    14.7000    141.099     32.000 500281.000    120.000    43.3207   -20.0773   -26.3592   120.0962    -0.1480    -3.0001   -54.4338   120.6193    24.1736    -0.9995     0.0015    14.0000     4.0000     4.0000     2.0000    16.0000     4.0000     6.0000    10.0000    -2.0005     2.0025   159.4167   -41.1662     2.0005    34.9499     5.0014     5.0004     5.0000     5.000
     41     1.0000     0.0000     1.0000    20.0000    14.7000    141.705     29.000 500281.000    120.000    43.4765   -20.0773   -26.4556   120.0962    -0.1480    -3.0001   -54.2224   120.1641    24.4862    -0.9995     0.0015    14.0000     4.0000     4.0000     2.0000    16.0000     4.0000     6.0000    10.0000    -2.0005     2.0025   159.4167   -41.1662     2.0005    34.7000     4.9949     4.9993     5.0000     5.000
     42     1.0000     0.0000     1.0000    19.7508    14.7000    143.071     34.000 500281.000    120.000    43.6339   -20.0773   -26.5529   120.0962    -0.1480    -3.0001   -54.0105   119.7126    24.7975    -0.9995     0.0015    14.0000     4.0000     4.0000     2.0000    16.0000     4.0000     6.0000    10.0000    -2.0005     2.0025   159.4167   -41.1662     2.0005    34.4508     4.9940     4.9992     5.0000     5.000
     43     1.0000     0.0000     1.0000    19.4999    14.7000    144.447     38.000 500281.000    120.000    43.7931   -20.0773   -26.6519   120.0962    -0.1480    -3.0001   -53.7978   119.2643    25.1044    -0.9995     0.0015    14.0000     4.0000     4.0000     2.0000    16.0000     4.0000     6.0000    10.0000    -2.0005     2.0025   159.4167   -41.1662     2.0005    34.1998     5.0056     4.9971     5.0000     5.000
