# scan = 130
# date = 10/28/2024
# time = 8:23:28 AM
# proposal = 34735
# experiment = Magnons and paramagnon coupling in MnTe
# experiment_number = 823
# command = scan h 1.10 k 0.0 l 0.9 e 31.8 6.0 0.2 ef 14.7 preset mcu 60
# builtin_command = scan h 1.10 k 0.0 l 0.9 e 31.8 6.0 0.2 ef 14.7 preset mcu 60
# users = Benjamin Frandsen, Songxue Chi, George Yumnam, Huibo Cao, Michael Manley, Raphael Hermann, Eleanor Clements
# local_contact = Eleanor Clements
# scan_title = Scans H0L = (1.0, 0, 1.0) to (1.5, 0, 0.5) - Transverse at (1.10, 0.0, 0.9) - E = 31.8 to 6 mev
# monochromator = PG002
# analyzer = Pg002
# sense = -+-
# collimation = 48-40-40-120
# samplename = MnTe
# sampletype = crystal
# samplemosaic = 30.000000
# latticeconstants = 4.113532,4.113532,6.656209,90.000000,90.000000,120.000000
# ubmatrix = 0.008885,0.000200,-0.150137,0.280567,0.140284,0.004756,-0.000155,-0.243141,0.002621
# mode = 0
# plane_normal = 0.017452,-0.000000,0.999848
# ubconf = UB25Oct2024_84509PM.ini
# preset_type = normal 
# preset_channel = mcu
# preset_value = 60.000000
# def_x = e
# def_y = detector
# col_headers = 
#   Pt.          h          k          l          e         ef       time   detector    monitor        mcu focal_length         m1         m2   mcrystal       marc     mtrans     mfocus         s1         s2        sgl        sgu        bbb        bbl        bbr        bbt        bab        bal        bar        bat        stl        stu         a1         a2          q         ei        vti     sample       temp     temp_2
      1     1.1000     0.0000     0.9001    31.8026    14.7000     75.959     15.000 250141.000     60.000    37.5571   -20.0773   -22.8007   120.0962    -0.1480    -3.0001   -63.6075   149.4081     6.9534    -0.9995     0.0010    14.0000     4.0000     4.0000     2.0000    16.0000     4.0000     6.0000    10.0000    -2.0020     2.0025   159.4167   -41.1662     2.1181    46.5026     5.0051     4.9963     5.0000     5.000
      2     1.1000     0.0000     0.9000    31.6003    14.7000     75.321     13.000 250141.000     60.000    37.6382   -20.0773   -22.8512   120.0962    -0.1480    -3.0001   -63.4572   148.4483     7.7128    -0.9995     0.0010    14.0000     4.0000     4.0000     2.0000    16.0000     4.0000     6.0000    10.0000    -2.0020     2.0025   159.4167   -41.1662     2.1180    46.3003     5.0017     4.9965     5.0000     5.000
      3     1.1000     0.0000     0.8999    31.3998    14.7000     74.966      7.000 250141.000     60.000    37.7197   -20.0773   -22.9015   120.0962    -0.1480    -3.0001   -63.3065   147.5725     8.4077    -0.9995     0.0010    14.0000     4.0000     4.0000     2.0000    16.0000     4.0000     6.0000    10.0000    -2.0020     2.0025   159.4167   -41.1662     2.1180    46.0998     5.0039     4.9985     5.0000     5.000
      4     1.1000     0.0000     0.9000    31.2009    14.7000     74.500     20.000 250141.000     60.000    37.8018   -20.0773   -22.9517   120.0962    -0.1480    -3.0001   -63.1557   146.7608     9.0488    -0.9995     0.0010    14.0000     4.0000     4.0000     2.0000    16.0000     4.0000     6.0000    10.0000    -2.0020     2.0025   159.4167   -41.1662     2.1181    45.9009     5.0057     5.0010     5.0000     5.000
      5     1.1000     0.0000     0.8999    30.9994    14.7000     74.069      9.000 250141.000     60.000    37.8844   -20.0773   -23.0029   120.0962    -0.1480    -3.0001   -63.0045   146.0009     9.6481    -0.9995     0.0010    14.0000     4.0000     4.0000     2.0000    16.0000     4.0000     6.0000    10.0000    -2.0020     2.0025   159.4167   -41.1662     2.1180    45.6994     5.0010     5.0001     5.0000     5.000
      6     1.1000     0.0000     0.8999    30.7994    14.7000     73.270     17.000 250141.000     60.000    37.9676   -20.0773   -23.0541   120.0962    -0.1480    -3.0001   -62.8531   145.2834    10.2138    -0.9995     0.0010    14.0000     4.0000     4.0000     2.0000    16.0000     4.0000     6.0000    10.0000    -2.0020     2.0025   159.4167   -41.1662     2.1180    45.4994     5.0061     4.9970     5.0000     5.000
      7     1.1000     0.0000     0.9000    30.6002    14.7000     72.770     11.000 250141.000     60.000    38.0513   -20.0773   -23.1055   120.0962    -0.1480    -3.0001   -62.7014   144.6008    10.7506    -0.9995     0.0010    14.0000     4.0000     4.0000     2.0000    16.0000     4.0000     6.0000    10.0000    -2.0020     2.0025   159.4167   -41.1662     2.1180    45.3002     5.0065     4.9985     5.0000     5.000
      8     1.1000     0.0000     0.9000    30.4000    14.7000     72.157     13.000 250141.000     60.000    38.1356   -20.0773   -23.1574   120.0962    -0.1480    -3.0001   -62.5495   143.9494    11.2624    -0.9995     0.0010    14.0000     4.0000     4.0000     2.0000    16.0000     4.0000     6.0000    10.0000    -2.0020     2.0025   159.4167   -41.1662     2.1180    45.1000     4.9962     5.0020     5.0000     5.000
      9     1.1000     0.0000     0.9000    30.2005    14.7000     71.919     10.000 250141.000     60.000    38.2204   -20.0773   -23.2095   120.0962    -0.1480    -3.0001   -62.3973   143.3237    11.7542    -0.9995     0.0010    14.0000     4.0000     4.0000     2.0000    16.0000     4.0000     6.0000    10.0000    -2.0020     2.0025   159.4167   -41.1662     2.1180    44.9005     5.0085     5.0020     5.0000     5.000
     10     1.1000     0.0000     0.9000    30.0004    14.7000     71.939     12.000 250141.000     60.000    38.3059   -20.0773   -23.2621   120.0962    -0.1480    -3.0001   -62.2448   142.7212    12.2270    -0.9995     0.0010    14.0000     4.0000     4.0000     2.0000    16.0000     4.0000     6.0000    10.0000    -2.0020     2.0025   159.4167   -41.1662     2.1180    44.7004     4.9948     4.9978     5.0000     5.000
     11     1.1000     0.0000     0.8999    29.7990    14.7000     71.564     12.000 250141.000     60.000    38.3918   -20.0773   -23.3154   120.0962    -0.1480    -3.0001   -62.0920   142.1400    12.6827    -0.9995     0.0010    14.0000     4.0000     4.0000     2.0000    16.0000     4.0000     6.0000    10.0000    -2.0020     2.0025   159.4167   -41.1662     2.1179    44.4990     4.9943     4.9964     5.0000     5.000
     12     1.1000     0.0000     0.9000    29.6011    14.7000     71.003     12.000 250141.000     60.000    38.4784   -20.0773   -23.3682   120.0962    -0.1480    -3.0001   -61.9390   141.5764    13.1227    -0.9995     0.0010    14.0000     4.0000     4.0000     2.0000    16.0000     4.0000     6.0000    10.0000    -2.0020     2.0025   159.4167   -41.1662     2.1180    44.3011     4.9992     4.9983     5.0000     5.000
     13     1.1000     0.0000     0.9000    29.3997    14.7000     71.151      9.000 250141.000     60.000    38.5656   -20.0773   -23.4222   120.0962    -0.1480    -3.0001   -61.7856   141.0299    13.5508    -0.9995     0.0010    14.0000     4.0000     4.0000     2.0000    16.0000     4.0000     6.0000    10.0000    -2.0020     2.0025   159.4167   -41.1662     2.1180    44.0997     4.9939     4.9988     5.0000     5.000
     14     1.1000     0.0000     0.9000    29.1999    14.7000     71.075     13.000 250141.000     60.000    38.6533   -20.0773   -23.4762   120.0962    -0.1480    -3.0001   -61.6320   140.4977    13.9666    -0.9995     0.0010    14.0000     4.0000     4.0000     2.0000    16.0000     4.0000     6.0000    10.0000    -2.0020     2.0025   159.4167   -41.1662     2.1180    43.8999     5.0030     5.0012     5.0000     5.000
     15     1.1000     0.0000     0.8999    28.9998    14.7000     70.628      7.000 250141.000     60.000    38.7417   -20.0773   -23.5307   120.0962    -0.1480    -3.0001   -61.4781   139.9796    14.3719    -0.9995     0.0010    14.0000     4.0000     4.0000     2.0000    16.0000     4.0000     6.0000    10.0000    -2.0020     2.0025   159.4167   -41.1662     2.1180    43.6998     4.9958     5.0012     5.0000     5.000
     16     1.1000     0.0000     0.9000    28.8006    14.7000     70.735     22.000 250141.000     60.000    38.8306   -20.0773   -23.5853   120.0962    -0.1480    -3.0001   -61.3240   139.4740    14.7656    -0.9995     0.0010    14.0000     4.0000     4.0000     2.0000    16.0000     4.0000     6.0000    10.0000    -2.0020     2.0025   159.4167   -41.1662     2.1180    43.5006     4.9989     4.9967     5.0000     5.000
     17     1.1000     0.0000     0.8999    28.5993    14.7000     70.526     13.000 250141.000     60.000    38.9202   -20.0773   -23.6408   120.0962    -0.1480    -3.0001   -61.1695   138.9797    15.1498    -0.9995     0.0010    14.0000     4.0000     4.0000     2.0000    16.0000     4.0000     6.0000    10.0000    -2.0020     2.0025   159.4167   -41.1662     2.1180    43.2993     5.0054     4.9990     5.0000     5.000
     18     1.1000     0.0000     0.9001    28.4006    14.7000     70.605     16.000 250141.000     60.000    39.0104   -20.0773   -23.6960   120.0962    -0.1480    -3.0001   -61.0148   138.4960    15.5238    -0.9995     0.0010    14.0000     4.0000     4.0000     2.0000    16.0000     4.0000     6.0000    10.0000    -2.0020     2.0025   159.4167   -41.1662     2.1180    43.1006     4.9946     5.0018     5.0000     5.000
     19     1.1000     0.0000     0.9000    28.1998    14.7000     70.567     23.000 250141.000     60.000    39.1012   -20.0773   -23.7522   120.0962    -0.1480    -3.0001   -60.8597   138.0226    15.8916    -0.9995     0.0010    14.0000     4.0000     4.0000     2.0000    16.0000     4.0000     6.0000    10.0000    -2.0020     2.0025   159.4167   -41.1662     2.1179    42.8998     4.9967     4.9990     5.0000     5.000
     20     1.1000     0.0000     0.8999    27.9998    14.7000     70.268     23.000 250141.000     60.000    39.1927   -20.0773   -23.8086   120.0962    -0.1480    -3.0001   -60.7044   137.5579    16.2551    -0.9995     0.0010    14.0000     4.0000     4.0000     2.0000    16.0000     4.0000     6.0000    10.0000    -2.0020     2.0025   159.4167   -41.1662     2.1180    42.6998     5.0037     5.0018     5.0000     5.000
     21     1.1000     0.0000     0.9000    27.7998    14.7000     70.271     17.000 250141.000     60.000    39.2848   -20.0773   -23.8654   120.0962    -0.1480    -3.0001   -60.5487   137.1014    16.6067    -0.9995     0.0010    14.0000     4.0000     4.0000     2.0000    16.0000     4.0000     6.0000    10.0000    -2.0020     2.0025   159.4167   -41.1662     2.1180    42.4998     4.9938     4.9985     5.0000     5.000
     22     1.1000     0.0000     0.9000    27.6004    14.7000     70.049     29.000 250141.000     60.000    39.3775   -20.0773   -23.9224   120.0962    -0.1480    -3.0001   -60.3928   136.6540    16.9540    -0.9995     0.0010    14.0000     4.0000     4.0000     2.0000    16.0000     4.0000     6.0000    10.0000    -2.0020     2.0025   159.4167   -41.1662     2.1180    42.3004     5.0014     5.0020     5.0000     5.000
     23     1.1000     0.0000     0.9000    27.3999    14.7000     69.237     18.000 250141.000     60.000    39.4710   -20.0773   -23.9802   120.0962    -0.1480    -3.0001   -60.2366   136.2127    17.2931    -0.9995     0.0010    14.0000     4.0000     4.0000     2.0000    16.0000     4.0000     6.0000    10.0000    -2.0020     2.0025   159.4167   -41.1662     2.1179    42.0999     5.0022     5.0043     5.0000     5.000
     24     1.1000     0.0000     0.9000    27.2001    14.7000     68.734     17.000 250141.000     60.000    39.5651   -20.0773   -24.0381   120.0962    -0.1480    -3.0001   -60.0800   135.7792    17.6307    -0.9995     0.0010    14.0000     4.0000     4.0000     2.0000    16.0000     4.0000     6.0000    10.0000    -2.0020     2.0025   159.4167   -41.1662     2.1180    41.9001     4.9988     5.0013     5.0000     5.000
     25     1.1000     0.0000     0.8999    26.9995    14.7000     68.191     26.000 250141.000     60.000    39.6598   -20.0773   -24.0967   120.0962    -0.1480    -3.0001   -59.9232   135.3521    17.9597    -0.9995     0.0010    14.0000     4.0000     4.0000     2.0000    16.0000     4.0000     6.0000    10.0000    -2.0020     2.0025   159.4167   -41.1662     2.1180    41.6995     4.9960     4.9962     5.0000     5.000
     26     1.1000     0.0000     0.9000    26.8004    14.7000     67.489     16.000 250141.000     60.000    39.7553   -20.0773   -24.1553   120.0962    -0.1480    -3.0001   -59.7660   134.9310    18.2815    -0.9995     0.0010    14.0000     4.0000     4.0000     2.0000    16.0000     4.0000     6.0000    10.0000    -2.0020     2.0025   159.4167   -41.1662     2.1180    41.5004     4.9969     5.0003     5.0000     5.000
     27     1.1000     0.0000     0.9000    26.5998    14.7000     67.296     36.000 250141.000     60.000    39.8514   -20.0773   -24.2148   120.0962    -0.1480    -3.0001   -59.6086   134.5163    18.6028    -0.9995     0.0010    14.0000     4.0000     4.0000     2.0000    16.0000     4.0000     6.0000    10.0000    -2.0020     2.0025   159.4167   -41.1662     2.1180    41.2998     5.0007     5.0036     5.0000     5.000
     28     1.1000     0.0000     0.9000    26.4001    14.7000     66.482     27.000 250141.000     60.000    39.9483   -20.0773   -24.2745   120.0962    -0.1480    -3.0001   -59.4508   134.1068    18.9144    -0.9995     0.0010    14.0000     4.0000     4.0000     2.0000    16.0000     4.0000     6.0000    10.0000    -2.0020     2.0025   159.4167   -41.1662     2.1179    41.1001     5.0060     4.9992     5.0000     5.000
     29     1.1001     0.0000     0.9000    26.2006    14.7000     65.883     23.000 250141.000     60.000    40.0458   -20.0773   -24.3345   120.0962    -0.1480    -3.0001   -59.2927   133.7028    19.2286    -0.9995     0.0010    14.0000     4.0000     4.0000     2.0000    16.0000     4.0000     6.0000    10.0000    -2.0020     2.0025   159.4167   -41.1662     2.1181    40.9006     4.9970     5.0021     5.0000     5.000
     30     1.1000     0.0000     0.9000    25.9993    14.7000     65.539     15.000 250141.000     60.000    40.1441   -20.0773   -24.3955   120.0962    -0.1480    -3.0001   -59.1343   133.3032    19.5311    -0.9995     0.0010    14.0000     4.0000     4.0000     2.0000    16.0000     4.0000     6.0000    10.0000    -2.0020     2.0025   159.4167   -41.1662     2.1179    40.6993     4.9929     5.0015     5.0000     5.000
     31     1.1000     0.0000     0.8999    25.7995    14.7000     64.948     21.000 250141.000     60.000    40.2431   -20.0773   -24.4566   120.0962    -0.1480    -3.0001   -58.9756   132.9089    19.8359    -0.9995     0.0010    14.0000     4.0000     4.0000     2.0000    16.0000     4.0000     6.0000    10.0000    -2.0020     2.0025   159.4167   -41.1662     2.1180    40.4995     4.9959     4.9975     5.0000     5.000
     32     1.1000     0.0000     0.9000    25.6006    14.7000     64.497     25.000 250141.000     60.000    40.3428   -20.0773   -24.5177   120.0962    -0.1480    -3.0001   -58.8166   132.5186    20.1311    -0.9995     0.0010    14.0000     4.0000     4.0000     2.0000    16.0000     4.0000     6.0000    10.0000    -2.0020     2.0025   159.4167   -41.1662     2.1180    40.3006     4.9956     5.0038     5.0000     5.000
     33     1.1000     0.0000     0.9000    25.4003    14.7000     64.206     19.000 250141.000     60.000    40.4433   -20.0773   -24.5799   120.0962    -0.1480    -3.0001   -58.6572   132.1330    20.4278    -0.9995     0.0010    14.0000     4.0000     4.0000     2.0000    16.0000     4.0000     6.0000    10.0000    -2.0020     2.0025   159.4167   -41.1662     2.1180    40.1003     5.0054     4.9985     5.0000     5.000
     34     1.1000     0.0000     0.9000    25.2003    14.7000     63.962     19.000 250141.000     60.000    40.5446   -20.0773   -24.6424   120.0962    -0.1480    -3.0001   -58.4975   131.7512    20.7156    -0.9995     0.0010    14.0000     4.0000     4.0000     2.0000    16.0000     4.0000     6.0000    10.0000    -2.0020     2.0025   159.4167   -41.1662     2.1179    39.9003     4.9982     4.9983     5.0000     5.000
     35     1.1000     0.0000     0.8999    24.9994    14.7000     63.792     23.000 250141.000     60.000    40.6465   -20.0773   -24.7056   120.0962    -0.1480    -3.0001   -58.3375   131.3739    21.0051    -0.9995     0.0010    14.0000     4.0000     4.0000     2.0000    16.0000     4.0000     6.0000    10.0000    -2.0020     2.0025   159.4167   -41.1662     2.1180    39.6993     4.9983     5.0003     5.0000     5.000
     36     1.1000     0.0000     0.9000    24.8005    14.7000     63.482     22.000 250141.000     60.000    40.7493   -20.0773   -24.7687   120.0962    -0.1480    -3.0001   -58.1772   130.9994    21.2894    -0.9995     0.0010    14.0000     4.0000     4.0000     2.0000    16.0000     4.0000     6.0000    10.0000    -2.0020     2.0025   159.4167   -41.1662     2.1180    39.5005     5.0034     5.0004     5.0000     5.000
     37     1.1000     0.0000     0.9000    24.5999    14.7000     63.490     24.000 250141.000     60.000    40.8529   -20.0773   -24.8329   120.0962    -0.1480    -3.0001   -58.0165   130.6291    21.5705    -0.9995     0.0010    14.0000     4.0000     4.0000     2.0000    16.0000     4.0000     6.0000    10.0000    -2.0020     2.0025   159.4167   -41.1662     2.1180    39.2999     4.9953     4.9930     5.0000     5.000
     38     1.1000     0.0000     0.9000    24.3998    14.7000     63.664     25.000 250141.000     60.000    40.9572   -20.0773   -24.8973   120.0962    -0.1480    -3.0001   -57.8555   130.2615    21.8486    -0.9995     0.0010    14.0000     4.0000     4.0000     2.0000    16.0000     4.0000     6.0000    10.0000    -2.0020     2.0025   159.4167   -41.1662     2.1180    39.0998     4.9952     5.0017     5.0000     5.000
     39     1.1000     0.0000     0.9000    24.2002    14.7000     63.847     17.000 250141.000     60.000    41.0624   -20.0773   -24.9622   120.0962    -0.1480    -3.0001   -57.6941   129.8984    22.1219    -0.9995     0.0010    14.0000     4.0000     4.0000     2.0000    16.0000     4.0000     6.0000    10.0000    -2.0020     2.0025   159.4167   -41.1662     2.1179    38.9002     4.9937     4.9974     5.0000     5.000
     40     1.1000     0.0000     0.9000    23.9999    14.7000     64.247     23.000 250141.000     60.000    41.1683   -20.0773   -25.0277   120.0962    -0.1480    -3.0001   -57.5324   129.5370    22.3961    -0.9995     0.0010    14.0000     4.0000     4.0000     2.0000    16.0000     4.0000     6.0000    10.0000    -2.0020     2.0025   159.4167   -41.1662     2.1180    38.6999     4.9955     5.0033     5.0000     5.000
     41     1.1000     0.0000     0.9000    23.8006    14.7000     64.222     15.000 250141.000     60.000    41.2751   -20.0773   -25.0935   120.0962    -0.1480    -3.0001   -57.3704   129.1794    22.6666    -0.9995     0.0010    14.0000     4.0000     4.0000     2.0000    16.0000     4.0000     6.0000    10.0000    -2.0020     2.0025   159.4167   -41.1662     2.1180    38.5006     5.0020     5.0038     5.0000     5.000
     42     1.1000     0.0000     0.9000    23.6001    14.7000     64.808     18.000 250141.000     60.000    41.3828   -20.0773   -25.1602   120.0962    -0.1480    -3.0001   -57.2080   128.8244    22.9327    -0.9995     0.0010    14.0000     4.0000     4.0000     2.0000    16.0000     4.0000     6.0000    10.0000    -2.0020     2.0025   159.4167   -41.1662     2.1180    38.3001     5.0044     4.9959     5.0000     5.000
     43     1.1000     0.0000     0.8999    23.3993    14.7000     65.098     29.000 250141.000     60.000    41.4912   -20.0773   -25.2275   120.0962    -0.1480    -3.0001   -57.0453   128.4724    23.1998    -0.9995     0.0010    14.0000     4.0000     4.0000     2.0000    16.0000     4.0000     6.0000    10.0000    -2.0020     2.0025   159.4167   -41.1662     2.1180    38.0993     4.9955     5.0019     5.0000     5.000
