# scan = 120
# date = 10/27/2024
# time = 6:20:03 PM
# proposal = 34735
# experiment = Magnons and paramagnon coupling in MnTe
# experiment_number = 823
# command = scan h 1.20 k 0.0 l 0.8 e 33.2 16.0 0.25 ef 14.7 preset mcu 60
# builtin_command = scan h 1.20 k 0.0 l 0.8 e 33.2 16.0 0.25 ef 14.7 preset mcu 60
# users = Benjamin Frandsen, Songxue Chi, George Yumnam, Huibo Cao, Michael Manley, Raphael Hermann, Eleanor Clements
# local_contact = Eleanor Clements
# scan_title = Scans H0L = (1.0, 0, 1.0) to (1.5, 0, 0.5) - Transverse at (1.20, 0.0, 0.8) - E = 33.2 to 20 mev
# monochromator = PG002
# analyzer = Pg002
# sense = -+-
# collimation = 48-40-40-120
# samplename = MnTe
# sampletype = crystal
# samplemosaic = 30.000000
# latticeconstants = 4.113532,4.113532,6.656209,90.000000,90.000000,120.000000
# ubmatrix = 0.008885,0.000200,-0.150137,0.280567,0.140284,0.004756,-0.000155,-0.243141,0.002621
# mode = 0
# plane_normal = 0.017452,-0.000000,0.999848
# ubconf = UB25Oct2024_84509PM.ini
# preset_type = normal 
# preset_channel = mcu
# preset_value = 60.000000
# def_x = e
# def_y = detector
# col_headers = 
#   Pt.          h          k          l          e         ef       time   detector    monitor        mcu focal_length         m1         m2   mcrystal       marc     mtrans     mfocus         s1         s2        sgl        sgu        bbb        bbl        bbr        bbt        bab        bal        bar        bat        stl        stu         a1         a2          q         ei        vti     sample       temp     temp_2
      1     1.2001     0.0000     0.8000    33.2028    14.7000     76.739     18.000 250141.000     60.000    37.0042   -20.0773   -22.4606   120.0962    -0.1480    -3.0001   -64.6528   149.3828    10.7715    -0.9995     0.0010    14.0000     4.0000     4.0000     2.0000    16.0000     4.0000     6.0000    10.0000    -2.0020     2.0025   159.4167   -41.1662     2.2474    47.9028     5.0009     5.0014     5.0000     5.000
      2     1.2000     0.0000     0.7999    32.9500    14.7000     76.537     20.000 250141.000     60.000    37.1012   -20.0773   -22.5209   120.0962    -0.1480    -3.0001   -64.4670   148.6174    11.4122    -0.9995     0.0010    14.0000     4.0000     4.0000     2.0000    16.0000     4.0000     6.0000    10.0000    -2.0020     2.0025   159.4167   -41.1662     2.2472    47.6500     5.0028     5.0021     5.0000     5.000
      3     1.2000     0.0000     0.7999    32.6997    14.7000     75.998     18.000 250141.000     60.000    37.1989   -20.0773   -22.5811   120.0962    -0.1480    -3.0001   -64.2809   147.8905    12.0195    -0.9995     0.0010    14.0000     4.0000     4.0000     2.0000    16.0000     4.0000     6.0000    10.0000    -2.0020     2.0025   159.4167   -41.1662     2.2472    47.3997     5.0051     5.0002     5.0000     5.000
      4     1.2000     0.0000     0.8000    32.4504    14.7000     75.697     19.000 250141.000     60.000    37.2974   -20.0773   -22.6415   120.0962    -0.1480    -3.0001   -64.0944   147.1959    12.5994    -0.9995     0.0010    14.0000     4.0000     4.0000     2.0000    16.0000     4.0000     6.0000    10.0000    -2.0020     2.0025   159.4167   -41.1662     2.2472    47.1504     5.0048     4.9974     5.0000     5.000
      5     1.2000     0.0000     0.8000    32.2003    14.7000     75.346     16.000 250141.000     60.000    37.3966   -20.0773   -22.7026   120.0962    -0.1480    -3.0001   -63.9074   146.5304    13.1542    -0.9995     0.0010    14.0000     4.0000     4.0000     2.0000    16.0000     4.0000     6.0000    10.0000    -2.0020     2.0025   159.4167   -41.1662     2.2472    46.9002     4.9967     5.0006     5.0000     5.000
      6     1.2000     0.0000     0.8001    31.9502    14.7000     74.379     15.000 250141.000     60.000    37.4967   -20.0773   -22.7642   120.0962    -0.1480    -3.0001   -63.7201   145.8880    13.6872    -0.9995     0.0010    14.0000     4.0000     4.0000     2.0000    16.0000     4.0000     6.0000    10.0000    -2.0020     2.0025   159.4167   -41.1662     2.2471    46.6502     5.0063     5.0016     5.0000     5.000
      7     1.2000     0.0000     0.7999    31.6996    14.7000     74.353     13.000 250141.000     60.000    37.5976   -20.0773   -22.8264   120.0962    -0.1480    -3.0001   -63.5324   145.2684    14.2073    -0.9995     0.0010    14.0000     4.0000     4.0000     2.0000    16.0000     4.0000     6.0000    10.0000    -2.0020     2.0025   159.4167   -41.1662     2.2472    46.3996     5.0075     5.0003     5.0000     5.000
      8     1.2000     0.0000     0.8000    31.4492    14.7000     73.726     26.000 250141.000     60.000    37.6993   -20.0773   -22.8891   120.0962    -0.1480    -3.0001   -63.3442   144.6680    14.7042    -0.9995     0.0010    14.0000     4.0000     4.0000     2.0000    16.0000     4.0000     6.0000    10.0000    -2.0020     2.0025   159.4167   -41.1662     2.2471    46.1492     5.0066     5.0033     5.0000     5.000
      9     1.2000     0.0000     0.8000    31.2013    14.7000     73.490     17.000 250141.000     60.000    37.8018   -20.0773   -22.9516   120.0962    -0.1480    -3.0001   -63.1557   144.0851    15.1906    -0.9995     0.0010    14.0000     4.0000     4.0000     2.0000    16.0000     4.0000     6.0000    10.0000    -2.0020     2.0025   159.4167   -41.1662     2.2473    45.9013     4.9964     5.0000     5.0000     5.000
     10     1.2000     0.0000     0.8000    30.9496    14.7000     73.299     22.000 250141.000     60.000    37.9052   -20.0773   -23.0157   120.0962    -0.1480    -3.0001   -62.9667   143.5181    15.6611    -0.9995     0.0010    14.0000     4.0000     4.0000     2.0000    16.0000     4.0000     6.0000    10.0000    -2.0020     2.0025   159.4167   -41.1662     2.2472    45.6496     5.0004     5.0010     5.0000     5.000
     11     1.2000     0.0000     0.8000    30.7004    14.7000     72.899     22.000 250141.000     60.000    38.0094   -20.0773   -23.0796   120.0962    -0.1480    -3.0001   -62.7773   142.9654    16.1179    -0.9995     0.0010    14.0000     4.0000     4.0000     2.0000    16.0000     4.0000     6.0000    10.0000    -2.0020     2.0025   159.4167   -41.1662     2.2472    45.4004     5.0058     5.0005     5.0000     5.000
     12     1.2000     0.0000     0.8000    30.4493    14.7000     72.507     38.000 250141.000     60.000    38.1145   -20.0773   -23.1446   120.0962    -0.1480    -3.0001   -62.5875   142.4257    16.5670    -0.9995     0.0010    14.0000     4.0000     4.0000     2.0000    16.0000     4.0000     6.0000    10.0000    -2.0020     2.0025   159.4167   -41.1662     2.2472    45.1493     5.0046     5.0009     5.0000     5.000
     13     1.2000     0.0000     0.7999    30.2001    14.7000     72.186     34.000 250141.000     60.000    38.2204   -20.0773   -23.2096   120.0962    -0.1480    -3.0001   -62.3973   141.8989    17.0049    -0.9995     0.0010    14.0000     4.0000     4.0000     2.0000    16.0000     4.0000     6.0000    10.0000    -2.0020     2.0025   159.4167   -41.1662     2.2472    44.9001     5.0076     4.9988     5.0000     5.000
     14     1.2000     0.0000     0.7999    29.9495    14.7000     71.823     41.000 250141.000     60.000    38.3273   -20.0773   -23.2755   120.0962    -0.1480    -3.0001   -62.2066   141.3824    17.4317    -0.9995     0.0010    14.0000     4.0000     4.0000     2.0000    16.0000     4.0000     6.0000    10.0000    -2.0020     2.0025   159.4167   -41.1662     2.2472    44.6495     4.9984     4.9976     5.0000     5.000
     15     1.2000     0.0000     0.8000    29.7004    14.7000     71.343     27.000 250141.000     60.000    38.4350   -20.0773   -23.3417   120.0962    -0.1480    -3.0001   -62.0155   140.8764    17.8485    -0.9995     0.0010    14.0000     4.0000     4.0000     2.0000    16.0000     4.0000     6.0000    10.0000    -2.0020     2.0025   159.4167   -41.1662     2.2472    44.4004     4.9978     5.0020     5.0000     5.000
     16     1.2000     0.0000     0.7999    29.4493    14.7000     71.275     43.000 250141.000     60.000    38.5437   -20.0773   -23.4089   120.0962    -0.1480    -3.0001   -61.8240   140.3802    18.2585    -0.9995     0.0010    14.0000     4.0000     4.0000     2.0000    16.0000     4.0000     6.0000    10.0000    -2.0020     2.0025   159.4167   -41.1662     2.2472    44.1493     4.9997     4.9977     5.0000     5.000
     17     1.2000     0.0000     0.8000    29.2008    14.7000     71.107     37.000 250141.000     60.000    38.6533   -20.0773   -23.4760   120.0962    -0.1480    -3.0001   -61.6320   139.8929    18.6603    -0.9995     0.0010    14.0000     4.0000     4.0000     2.0000    16.0000     4.0000     6.0000    10.0000    -2.0020     2.0025   159.4167   -41.1662     2.2472    43.9008     4.9962     5.0016     5.0000     5.000
     18     1.2000     0.0000     0.7999    28.9494    14.7000     70.945     42.000 250141.000     60.000    38.7638   -20.0773   -23.5445   120.0962    -0.1480    -3.0001   -61.4396   139.4139    19.0553    -0.9995     0.0010    14.0000     4.0000     4.0000     2.0000    16.0000     4.0000     6.0000    10.0000    -2.0020     2.0025   159.4167   -41.1662     2.2472    43.6494     5.0033     5.0003     5.0000     5.000
     19     1.2000     0.0000     0.8000    28.7007    14.7000     70.720     40.000 250141.000     60.000    38.8753   -20.0773   -23.6128   120.0962    -0.1480    -3.0001   -61.2468   138.9425    19.4429    -0.9995     0.0010    14.0000     4.0000     4.0000     2.0000    16.0000     4.0000     6.0000    10.0000    -2.0020     2.0025   159.4167   -41.1662     2.2473    43.4007     5.0060     5.0005     5.0000     5.000
     20     1.2000     0.0000     0.7999    28.4493    14.7000     70.666     33.000 250141.000     60.000    38.9878   -20.0773   -23.6825   120.0962    -0.1480    -3.0001   -61.0535   138.4785    19.8252    -0.9995     0.0010    14.0000     4.0000     4.0000     2.0000    16.0000     4.0000     6.0000    10.0000    -2.0020     2.0025   159.4167   -41.1662     2.2472    43.1493     4.9959     5.0026     5.0000     5.000
     21     1.2001     0.0000     0.8000    28.2005    14.7000     70.754     42.000 250141.000     60.000    39.1012   -20.0773   -23.7520   120.0962    -0.1480    -3.0001   -60.8597   138.0214    20.2004    -0.9995     0.0010    14.0000     4.0000     4.0000     2.0000    16.0000     4.0000     6.0000    10.0000    -2.0020     2.0025   159.4167   -41.1662     2.2473    42.9005     5.0063     5.0032     5.0000     5.000
     22     1.2000     0.0000     0.8000    27.9494    14.7000     70.340     28.000 250141.000     60.000    39.2156   -20.0773   -23.8229   120.0962    -0.1480    -3.0001   -60.6655   137.5709    20.5677    -0.9995     0.0010    14.0000     4.0000     4.0000     2.0000    16.0000     4.0000     6.0000    10.0000    -2.0020     2.0025   159.4167   -41.1662     2.2472    42.6494     5.0044     4.9999     5.0000     5.000
     23     1.2000     0.0000     0.8000    27.7005    14.7000     69.990     21.000 250141.000     60.000    39.3311   -20.0773   -23.8937   120.0962    -0.1480    -3.0001   -60.4708   137.1261    20.9309    -0.9995     0.0010    14.0000     4.0000     4.0000     2.0000    16.0000     4.0000     6.0000    10.0000    -2.0020     2.0025   159.4167   -41.1662     2.2472    42.4005     5.0024     5.0002     5.0000     5.000
     24     1.2000     0.0000     0.8000    27.4496    14.7000     69.442     32.000 250141.000     60.000    39.4476   -20.0773   -23.9658   120.0962    -0.1480    -3.0001   -60.2756   136.6877    21.2906    -0.9995     0.0010    14.0000     4.0000     4.0000     2.0000    16.0000     4.0000     6.0000    10.0000    -2.0020     2.0025   159.4167   -41.1662     2.2472    42.1496     5.0042     5.0029     5.0000     5.000
     25     1.2000     0.0000     0.8000    27.2005    14.7000     69.271     26.000 250141.000     60.000    39.5651   -20.0773   -24.0380   120.0962    -0.1480    -3.0001   -60.0800   136.2543    21.6461    -0.9995     0.0010    14.0000     4.0000     4.0000     2.0000    16.0000     4.0000     6.0000    10.0000    -2.0020     2.0025   159.4167   -41.1662     2.2473    41.9005     5.0006     5.0033     5.0000     5.000
     26     1.2000     0.0000     0.8000    26.9493    14.7000     67.973     34.000 250141.000     60.000    39.6836   -20.0773   -24.1115   120.0962    -0.1480    -3.0001   -59.8839   135.8255    21.9949    -0.9995     0.0010    14.0000     4.0000     4.0000     2.0000    16.0000     4.0000     6.0000    10.0000    -2.0020     2.0025   159.4167   -41.1662     2.2472    41.6493     4.9967     5.0018     5.0000     5.000
     27     1.2000     0.0000     0.8000    26.7007    14.7000     67.419     25.000 250141.000     60.000    39.8033   -20.0773   -24.1848   120.0962    -0.1480    -3.0001   -59.6874   135.4027    22.3388    -0.9995     0.0010    14.0000     4.0000     4.0000     2.0000    16.0000     4.0000     6.0000    10.0000    -2.0020     2.0025   159.4167   -41.1662     2.2472    41.4007     4.9968     5.0015     5.0000     5.000
     28     1.2000     0.0000     0.8000    26.4495    14.7000     66.277     33.000 250141.000     60.000    39.9240   -20.0773   -24.2597   120.0962    -0.1480    -3.0001   -59.4903   134.9839    22.6788    -0.9995     0.0010    14.0000     4.0000     4.0000     2.0000    16.0000     4.0000     6.0000    10.0000    -2.0020     2.0025   159.4167   -41.1662     2.2471    41.1495     4.9978     5.0046     5.0000     5.000
     29     1.2001     0.0000     0.8000    26.2010    14.7000     65.710     20.000 250141.000     60.000    40.0458   -20.0773   -24.3344   120.0962    -0.1480    -3.0001   -59.2927   134.5694    23.0179    -0.9995     0.0010    14.0000     4.0000     4.0000     2.0000    16.0000     4.0000     6.0000    10.0000    -2.0020     2.0025   159.4167   -41.1662     2.2473    40.9010     5.0070     4.9974     5.0000     5.000
     30     1.2000     0.0000     0.8000    25.9499    14.7000     65.339     32.000 250141.000     60.000    40.1688   -20.0773   -24.4106   120.0962    -0.1480    -3.0001   -59.0947   134.1594    23.3494    -0.9995     0.0010    14.0000     4.0000     4.0000     2.0000    16.0000     4.0000     6.0000    10.0000    -2.0020     2.0025   159.4167   -41.1662     2.2472    40.6499     4.9981     5.0002     5.0000     5.000
     31     1.2000     0.0000     0.8000    25.6998    14.7000     64.610     24.000 250141.000     60.000    40.2929   -20.0773   -24.4872   120.0962    -0.1480    -3.0001   -58.8961   133.7533    23.6772    -0.9995     0.0010    14.0000     4.0000     4.0000     2.0000    16.0000     4.0000     6.0000    10.0000    -2.0020     2.0025   159.4167   -41.1662     2.2471    40.3998     4.9978     5.0041     5.0000     5.000
     32     1.2000     0.0000     0.8000    25.4503    14.7000     64.356     21.000 250141.000     60.000    40.4181   -20.0773   -24.5643   120.0962    -0.1480    -3.0001   -58.6971   133.3505    24.0053    -0.9995     0.0010    14.0000     4.0000     4.0000     2.0000    16.0000     4.0000     6.0000    10.0000    -2.0020     2.0025   159.4167   -41.1662     2.2472    40.1503     4.9960     4.9985     5.0000     5.000
     33     1.2000     0.0000     0.8000    25.2003    14.7000     64.222     20.000 250141.000     60.000    40.5446   -20.0773   -24.6424   120.0962    -0.1480    -3.0001   -58.4975   132.9520    24.3260    -0.9995     0.0010    14.0000     4.0000     4.0000     2.0000    16.0000     4.0000     6.0000    10.0000    -2.0020     2.0025   159.4167   -41.1662     2.2472    39.9003     4.9945     4.9993     5.0000     5.000
     34     1.2000     0.0000     0.8000    24.9498    14.7000     63.994     22.000 250141.000     60.000    40.6722   -20.0773   -24.7213   120.0962    -0.1480    -3.0001   -58.2975   132.5564    24.6471    -0.9995     0.0010    14.0000     4.0000     4.0000     2.0000    16.0000     4.0000     6.0000    10.0000    -2.0020     2.0025   159.4167   -41.1662     2.2472    39.6498     4.9949     4.9989     5.0000     5.000
     35     1.2000     0.0000     0.8000    24.6997    14.7000     63.363     25.000 250141.000     60.000    40.8010   -20.0773   -24.8009   120.0962    -0.1480    -3.0001   -58.0969   132.1646    24.9634    -0.9995     0.0010    14.0000     4.0000     4.0000     2.0000    16.0000     4.0000     6.0000    10.0000    -2.0020     2.0025   159.4167   -41.1662     2.2472    39.3997     5.0061     5.0032     5.0000     5.000
     36     1.2000     0.0000     0.8000    24.4498    14.7000     63.421     17.000 250141.000     60.000    40.9311   -20.0773   -24.8812   120.0962    -0.1480    -3.0001   -57.8958   131.7755    25.2746    -0.9995     0.0010    14.0000     4.0000     4.0000     2.0000    16.0000     4.0000     6.0000    10.0000    -2.0020     2.0025   159.4167   -41.1662     2.2471    39.1498     4.9986     4.9987     5.0000     5.000
     37     1.2000     0.0000     0.8000    24.2002    14.7000     64.055     23.000 250141.000     60.000    41.0624   -20.0773   -24.9622   120.0962    -0.1480    -3.0001   -57.6941   131.3897    25.5861    -0.9995     0.0010    14.0000     4.0000     4.0000     2.0000    16.0000     4.0000     6.0000    10.0000    -2.0020     2.0025   159.4167   -41.1662     2.2472    38.9002     5.0038     4.9977     5.0000     5.000
     38     1.2000     0.0000     0.8000    23.9503    14.7000     64.071     13.000 250141.000     60.000    41.1950   -20.0773   -25.0440   120.0962    -0.1480    -3.0001   -57.4920   131.0061    25.8918    -0.9995     0.0010    14.0000     4.0000     4.0000     2.0000    16.0000     4.0000     6.0000    10.0000    -2.0020     2.0025   159.4167   -41.1662     2.2471    38.6503     5.0017     5.0011     5.0000     5.000
     39     1.2000     0.0000     0.8000    23.6992    14.7000     64.801     15.000 250141.000     60.000    41.3289   -20.0773   -25.1271   120.0962    -0.1480    -3.0001   -57.2892   130.6260    26.1992    -0.9995     0.0010    14.0000     4.0000     4.0000     2.0000    16.0000     4.0000     6.0000    10.0000    -2.0020     2.0025   159.4167   -41.1662     2.2472    38.3992     5.0026     4.9984     5.0000     5.000
     40     1.2000     0.0000     0.8000    23.4504    14.7000     65.203     17.000 250141.000     60.000    41.4640   -20.0773   -25.2103   120.0962    -0.1480    -3.0001   -57.0860   130.2486    26.4994    -0.9995     0.0010    14.0000     4.0000     4.0000     2.0000    16.0000     4.0000     6.0000    10.0000    -2.0020     2.0025   159.4167   -41.1662     2.2471    38.1504     4.9922     4.9989     5.0000     5.000
     41     1.2000     0.0000     0.8000    23.1995    14.7000     65.988     20.000 250141.000     60.000    41.6006   -20.0773   -25.2950   120.0962    -0.1480    -3.0001   -56.8822   129.8730    26.8014    -0.9995     0.0010    14.0000     4.0000     4.0000     2.0000    16.0000     4.0000     6.0000    10.0000    -2.0020     2.0025   159.4167   -41.1662     2.2472    37.8995     4.9951     5.0021     5.0000     5.000
     42     1.2000     0.0000     0.8001    22.9509    14.7000     66.529     20.000 250141.000     60.000    41.7385   -20.0773   -25.3797   120.0962    -0.1480    -3.0001   -56.6778   129.5000    27.0965    -0.9995     0.0010    14.0000     4.0000     4.0000     2.0000    16.0000     4.0000     6.0000    10.0000    -2.0020     2.0025   159.4167   -41.1662     2.2471    37.6509     4.9972     5.0017     5.0000     5.000
     43     1.2000     0.0000     0.8000    22.7004    14.7000     67.328     10.000 250141.000     60.000    41.8777   -20.0773   -25.4660   120.0962    -0.1480    -3.0001   -56.4729   129.1294    27.3951    -0.9995     0.0010    14.0000     4.0000     4.0000     2.0000    16.0000     4.0000     6.0000    10.0000    -2.0020     2.0025   159.4167   -41.1662     2.2472    37.4004     5.0016     5.0028     5.0000     5.000
