# scan = 126
# date = 10/28/2024
# time = 2:09:09 AM
# proposal = 34735
# experiment = Magnons and paramagnon coupling in MnTe
# experiment_number = 823
# command = scan h 1.14 k 0.0 l 0.86 e 32.4 10.0 0.2 ef 14.7 preset mcu 60
# builtin_command = scan h 1.14 k 0.0 l 0.86 e 32.4 10.0 0.2 ef 14.7 preset mcu 60
# users = Benjamin Frandsen, Songxue Chi, George Yumnam, Huibo Cao, Michael Manley, Raphael Hermann, Eleanor Clements
# local_contact = Eleanor Clements
# scan_title = Scans H0L = (1.0, 0, 1.0) to (1.5, 0, 0.5) - Transverse at (1.14, 0.0, 0.86) - E = 32.4 to 10 mev
# monochromator = PG002
# analyzer = Pg002
# sense = -+-
# collimation = 48-40-40-120
# samplename = MnTe
# sampletype = crystal
# samplemosaic = 30.000000
# latticeconstants = 4.113532,4.113532,6.656209,90.000000,90.000000,120.000000
# ubmatrix = 0.008885,0.000200,-0.150137,0.280567,0.140284,0.004756,-0.000155,-0.243141,0.002621
# mode = 0
# plane_normal = 0.017452,-0.000000,0.999848
# ubconf = UB25Oct2024_84509PM.ini
# preset_type = normal 
# preset_channel = mcu
# preset_value = 60.000000
# def_x = e
# def_y = detector
# col_headers = 
#   Pt.          h          k          l          e         ef       time   detector    monitor        mcu focal_length         m1         m2   mcrystal       marc     mtrans     mfocus         s1         s2        sgl        sgu        bbb        bbl        bbr        bbt        bab        bal        bar        bat        stl        stu         a1         a2          q         ei        vti     sample       temp     temp_2
      1     1.1400     0.0000     0.8602    32.4031    14.7000     76.456     12.000 250141.000     60.000    37.3172   -20.0773   -22.6530   120.0962    -0.1480    -3.0001   -64.0570   149.4546     8.4264    -0.9995     0.0010    14.0000     4.0000     4.0000     2.0000    16.0000     4.0000     6.0000    10.0000    -2.0020     2.0025   159.4167   -41.1662     2.1685    47.1031     5.0040     5.0011     5.0000     5.000
      2     1.1400     0.0000     0.8599    32.2003    14.7000     76.004     10.000 250141.000     60.000    37.3966   -20.0773   -22.7026   120.0962    -0.1480    -3.0001   -63.9074   148.6618     9.0727    -0.9995     0.0010    14.0000     4.0000     4.0000     2.0000    16.0000     4.0000     6.0000    10.0000    -2.0020     2.0025   159.4167   -41.1662     2.1684    46.9002     5.0062     5.0012     5.0000     5.000
      3     1.1400     0.0000     0.8600    31.9999    14.7000     75.389     11.000 250141.000     60.000    37.4766   -20.0773   -22.7519   120.0962    -0.1480    -3.0001   -63.7576   147.9203     9.6709    -0.9995     0.0010    14.0000     4.0000     4.0000     2.0000    16.0000     4.0000     6.0000    10.0000    -2.0020     2.0025   159.4167   -41.1662     2.1684    46.6999     4.9958     5.0005     5.0000     5.000
      4     1.1400     0.0000     0.8600    31.8000    14.7000     75.463     10.000 250141.000     60.000    37.5571   -20.0773   -22.8014   120.0962    -0.1480    -3.0001   -63.6075   147.2193    10.2374    -0.9995     0.0010    14.0000     4.0000     4.0000     2.0000    16.0000     4.0000     6.0000    10.0000    -2.0020     2.0025   159.4167   -41.1662     2.1684    46.5000     4.9979     4.9956     5.0000     5.000
      5     1.1400     0.0000     0.8599    31.5997    14.7000     74.654     11.000 250141.000     60.000    37.6382   -20.0773   -22.8513   120.0962    -0.1480    -3.0001   -63.4572   146.5538    10.7752    -0.9995     0.0010    14.0000     4.0000     4.0000     2.0000    16.0000     4.0000     6.0000    10.0000    -2.0020     2.0025   159.4167   -41.1662     2.1684    46.2997     5.0041     4.9983     5.0000     5.000
      6     1.1400     0.0000     0.8600    31.4000    14.7000     74.360     16.000 250141.000     60.000    37.7197   -20.0773   -22.9014   120.0962    -0.1480    -3.0001   -63.3065   145.9172    11.2861    -0.9995     0.0010    14.0000     4.0000     4.0000     2.0000    16.0000     4.0000     6.0000    10.0000    -2.0020     2.0025   159.4167   -41.1662     2.1684    46.1000     4.9957     5.0001     5.0000     5.000
      7     1.1400     0.0000     0.8600    31.2009    14.7000     73.873     15.000 250141.000     60.000    37.8018   -20.0773   -22.9517   120.0962    -0.1480    -3.0001   -63.1557   145.3065    11.7798    -0.9995     0.0010    14.0000     4.0000     4.0000     2.0000    16.0000     4.0000     6.0000    10.0000    -2.0020     2.0025   159.4167   -41.1662     2.1684    45.9009     5.0036     4.9983     5.0000     5.000
      8     1.1400     0.0000     0.8599    30.9994    14.7000     73.176      7.000 250141.000     60.000    37.8844   -20.0773   -23.0029   120.0962    -0.1480    -3.0001   -63.0045   144.7193    12.2538    -0.9995     0.0010    14.0000     4.0000     4.0000     2.0000    16.0000     4.0000     6.0000    10.0000    -2.0020     2.0025   159.4167   -41.1662     2.1684    45.6994     4.9966     4.9979     5.0000     5.000
      9     1.1400     0.0000     0.8600    30.7994    14.7000     73.004     11.000 250141.000     60.000    37.9676   -20.0773   -23.0541   120.0962    -0.1480    -3.0001   -62.8531   144.1513    12.7071    -0.9995     0.0010    14.0000     4.0000     4.0000     2.0000    16.0000     4.0000     6.0000    10.0000    -2.0020     2.0025   159.4167   -41.1662     2.1683    45.4994     5.0066     4.9982     5.0000     5.000
     10     1.1400     0.0000     0.8600    30.6002    14.7000     72.794     11.000 250141.000     60.000    38.0513   -20.0773   -23.1055   120.0962    -0.1480    -3.0001   -62.7014   143.6015    13.1500    -0.9995     0.0010    14.0000     4.0000     4.0000     2.0000    16.0000     4.0000     6.0000    10.0000    -2.0020     2.0025   159.4167   -41.1662     2.1684    45.3002     4.9954     4.9971     5.0000     5.000
     11     1.1400     0.0000     0.8600    30.3998    14.7000     72.493      5.000 250141.000     60.000    38.1356   -20.0773   -23.1574   120.0962    -0.1480    -3.0001   -62.5495   143.0681    13.5784    -0.9995     0.0010    14.0000     4.0000     4.0000     2.0000    16.0000     4.0000     6.0000    10.0000    -2.0020     2.0025   159.4167   -41.1662     2.1684    45.0998     4.9957     5.0005     5.0000     5.000
     12     1.1400     0.0000     0.8599    30.2005    14.7000     72.010     12.000 250141.000     60.000    38.2204   -20.0773   -23.2095   120.0962    -0.1480    -3.0001   -62.3973   142.5491    13.9955    -0.9995     0.0010    14.0000     4.0000     4.0000     2.0000    16.0000     4.0000     6.0000    10.0000    -2.0020     2.0025   159.4167   -41.1662     2.1684    44.9005     4.9982     5.0019     5.0000     5.000
     13     1.1400     0.0000     0.8599    30.0003    14.7000     71.817     13.000 250141.000     60.000    38.3059   -20.0773   -23.2622   120.0962    -0.1480    -3.0001   -62.2448   142.0434    14.4004    -0.9995     0.0010    14.0000     4.0000     4.0000     2.0000    16.0000     4.0000     6.0000    10.0000    -2.0020     2.0025   159.4167   -41.1662     2.1684    44.7003     4.9975     4.9980     5.0000     5.000
     14     1.1400     0.0000     0.8599    29.7992    14.7000     71.923     21.000 250141.000     60.000    38.3918   -20.0773   -23.3154   120.0962    -0.1480    -3.0001   -62.0920   141.5500    14.7949    -0.9995     0.0010    14.0000     4.0000     4.0000     2.0000    16.0000     4.0000     6.0000    10.0000    -2.0020     2.0025   159.4167   -41.1662     2.1684    44.4992     4.9942     5.0004     5.0000     5.000
     15     1.1401     0.0000     0.8600    29.6011    14.7000     71.211     13.000 250141.000     60.000    38.4784   -20.0773   -23.3682   120.0962    -0.1480    -3.0001   -61.9390   141.0679    15.1799    -0.9995     0.0010    14.0000     4.0000     4.0000     2.0000    16.0000     4.0000     6.0000    10.0000    -2.0020     2.0025   159.4167   -41.1662     2.1685    44.3011     4.9949     4.9970     5.0000     5.000
     16     1.1400     0.0000     0.8600    29.3997    14.7000     71.507     15.000 250141.000     60.000    38.5656   -20.0773   -23.4222   120.0962    -0.1480    -3.0001   -61.7856   140.5961    15.5551    -0.9995     0.0010    14.0000     4.0000     4.0000     2.0000    16.0000     4.0000     6.0000    10.0000    -2.0020     2.0025   159.4167   -41.1662     2.1684    44.0997     5.0067     4.9991     5.0000     5.000
     17     1.1400     0.0000     0.8600    29.1999    14.7000     71.017     25.000 250141.000     60.000    38.6533   -20.0773   -23.4762   120.0962    -0.1480    -3.0001   -61.6320   140.1344    15.9221    -0.9995     0.0010    14.0000     4.0000     4.0000     2.0000    16.0000     4.0000     6.0000    10.0000    -2.0020     2.0025   159.4167   -41.1662     2.1683    43.8999     4.9984     5.0030     5.0000     5.000
     18     1.1400     0.0000     0.8600    28.9998    14.7000     70.908     21.000 250141.000     60.000    38.7417   -20.0773   -23.5307   120.0962    -0.1480    -3.0001   -61.4781   139.6809    16.2829    -0.9995     0.0010    14.0000     4.0000     4.0000     2.0000    16.0000     4.0000     6.0000    10.0000    -2.0020     2.0025   159.4167   -41.1662     2.1683    43.6998     5.0009     4.9971     5.0000     5.000
     19     1.1400     0.0000     0.8600    28.8008    14.7000     70.782     31.000 250141.000     60.000    38.8306   -20.0773   -23.5852   120.0962    -0.1480    -3.0001   -61.3240   139.2364    16.6392    -0.9995     0.0010    14.0000     4.0000     4.0000     2.0000    16.0000     4.0000     6.0000    10.0000    -2.0020     2.0025   159.4167   -41.1662     2.1684    43.5008     4.9965     5.0015     5.0000     5.000
     20     1.1400     0.0000     0.8599    28.5991    14.7000     70.844     35.000 250141.000     60.000    38.9202   -20.0773   -23.6409   120.0962    -0.1480    -3.0001   -61.1695   138.7995    16.9870    -0.9995     0.0010    14.0000     4.0000     4.0000     2.0000    16.0000     4.0000     6.0000    10.0000    -2.0020     2.0025   159.4167   -41.1662     2.1684    43.2991     5.0031     4.9982     5.0000     5.000
     21     1.1400     0.0000     0.8600    28.4006    14.7000     70.756     28.000 250141.000     60.000    39.0104   -20.0773   -23.6960   120.0962    -0.1480    -3.0001   -61.0148   138.3699    17.3268    -0.9995     0.0010    14.0000     4.0000     4.0000     2.0000    16.0000     4.0000     6.0000    10.0000    -2.0020     2.0025   159.4167   -41.1662     2.1684    43.1006     5.0049     4.9990     5.0000     5.000
     22     1.1400     0.0000     0.8600    28.1996    14.7000     70.687     19.000 250141.000     60.000    39.1012   -20.0773   -23.7523   120.0962    -0.1480    -3.0001   -60.8597   137.9469    17.6622    -0.9995     0.0010    14.0000     4.0000     4.0000     2.0000    16.0000     4.0000     6.0000    10.0000    -2.0020     2.0025   159.4167   -41.1662     2.1684    42.8996     4.9973     5.0038     5.0000     5.000
     23     1.1400     0.0000     0.8600    27.9998    14.7000     70.262     30.000 250141.000     60.000    39.1927   -20.0773   -23.8086   120.0962    -0.1480    -3.0001   -60.7044   137.5308    17.9929    -0.9995     0.0010    14.0000     4.0000     4.0000     2.0000    16.0000     4.0000     6.0000    10.0000    -2.0020     2.0025   159.4167   -41.1662     2.1684    42.6998     5.0071     4.9968     5.0000     5.000
     24     1.1400     0.0000     0.8600    27.7998    14.7000     70.208     34.000 250141.000     60.000    39.2848   -20.0773   -23.8654   120.0962    -0.1480    -3.0001   -60.5487   137.1205    18.3154    -0.9995     0.0010    14.0000     4.0000     4.0000     2.0000    16.0000     4.0000     6.0000    10.0000    -2.0020     2.0025   159.4167   -41.1662     2.1683    42.4998     4.9977     4.9944     5.0000     5.000
     25     1.1400     0.0000     0.8600    27.6004    14.7000     69.538     31.000 250141.000     60.000    39.3775   -20.0773   -23.9224   120.0962    -0.1480    -3.0001   -60.3928   136.7163    18.6374    -0.9995     0.0010    14.0000     4.0000     4.0000     2.0000    16.0000     4.0000     6.0000    10.0000    -2.0020     2.0025   159.4167   -41.1662     2.1684    42.3004     4.9978     4.9972     5.0000     5.000
     26     1.1400     0.0000     0.8600    27.3999    14.7000     69.215     38.000 250141.000     60.000    39.4710   -20.0773   -23.9802   120.0962    -0.1480    -3.0001   -60.2366   136.3174    18.9520    -0.9995     0.0010    14.0000     4.0000     4.0000     2.0000    16.0000     4.0000     6.0000    10.0000    -2.0020     2.0025   159.4167   -41.1662     2.1684    42.0999     4.9935     4.9984     5.0000     5.000
     27     1.1400     0.0000     0.8600    27.2001    14.7000     68.896     29.000 250141.000     60.000    39.5651   -20.0773   -24.0381   120.0962    -0.1480    -3.0001   -60.0800   135.9234    19.2630    -0.9995     0.0010    14.0000     4.0000     4.0000     2.0000    16.0000     4.0000     6.0000    10.0000    -2.0020     2.0025   159.4167   -41.1662     2.1684    41.9001     4.9951     4.9971     5.0000     5.000
     28     1.1400     0.0000     0.8600    26.9995    14.7000     68.325     28.000 250141.000     60.000    39.6598   -20.0773   -24.0967   120.0962    -0.1480    -3.0001   -59.9232   135.5344    19.5689    -0.9995     0.0010    14.0000     4.0000     4.0000     2.0000    16.0000     4.0000     6.0000    10.0000    -2.0020     2.0025   159.4167   -41.1662     2.1684    41.6995     5.0039     4.9968     5.0000     5.000
     29     1.1400     0.0000     0.8600    26.8004    14.7000     67.740     18.000 250141.000     60.000    39.7553   -20.0773   -24.1553   120.0962    -0.1480    -3.0001   -59.7660   135.1502    19.8709    -0.9995     0.0010    14.0000     4.0000     4.0000     2.0000    16.0000     4.0000     6.0000    10.0000    -2.0020     2.0025   159.4167   -41.1662     2.1684    41.5004     4.9964     5.0051     5.0000     5.000
     30     1.1400     0.0000     0.8600    26.5998    14.7000     67.101     26.000 250141.000     60.000    39.8514   -20.0773   -24.2148   120.0962    -0.1480    -3.0001   -59.6086   134.7704    20.1707    -0.9995     0.0010    14.0000     4.0000     4.0000     2.0000    16.0000     4.0000     6.0000    10.0000    -2.0020     2.0025   159.4167   -41.1662     2.1684    41.2998     4.9951     5.0017     5.0000     5.000
     31     1.1400     0.0000     0.8600    26.4001    14.7000     66.595     30.000 250141.000     60.000    39.9483   -20.0773   -24.2745   120.0962    -0.1480    -3.0001   -59.4508   134.3949    20.4640    -0.9995     0.0010    14.0000     4.0000     4.0000     2.0000    16.0000     4.0000     6.0000    10.0000    -2.0020     2.0025   159.4167   -41.1662     2.1684    41.1001     5.0041     4.9990     5.0000     5.000
     32     1.1400     0.0000     0.8600    26.2005    14.7000     65.624     26.000 250141.000     60.000    40.0458   -20.0773   -24.3345   120.0962    -0.1480    -3.0001   -59.2927   134.0231    20.7563    -0.9995     0.0010    14.0000     4.0000     4.0000     2.0000    16.0000     4.0000     6.0000    10.0000    -2.0020     2.0025   159.4167   -41.1662     2.1684    40.9005     4.9980     5.0010     5.0000     5.000
     33     1.1400     0.0000     0.8600    25.9996    14.7000     65.350     32.000 250141.000     60.000    40.1441   -20.0773   -24.3954   120.0962    -0.1480    -3.0001   -59.1343   133.6554    21.0451    -0.9995     0.0010    14.0000     4.0000     4.0000     2.0000    16.0000     4.0000     6.0000    10.0000    -2.0020     2.0025   159.4167   -41.1662     2.1684    40.6996     4.9961     4.9941     5.0000     5.000
     34     1.1399     0.0000     0.8600    25.7995    14.7000     65.016     31.000 250141.000     60.000    40.2431   -20.0773   -24.4566   120.0962    -0.1480    -3.0001   -58.9756   133.2911    21.3270    -0.9995     0.0010    14.0000     4.0000     4.0000     2.0000    16.0000     4.0000     6.0000    10.0000    -2.0020     2.0025   159.4167   -41.1662     2.1683    40.4995     4.9937     5.0009     5.0000     5.000
     35     1.1401     0.0000     0.8600    25.6008    14.7000     64.538     25.000 250141.000     60.000    40.3428   -20.0773   -24.5177   120.0962    -0.1480    -3.0001   -58.8166   132.9307    21.6124    -0.9995     0.0010    14.0000     4.0000     4.0000     2.0000    16.0000     4.0000     6.0000    10.0000    -2.0020     2.0025   159.4167   -41.1662     2.1685    40.3008     4.9929     5.0011     5.0000     5.000
     36     1.1399     0.0000     0.8600    25.4003    14.7000     64.086     19.000 250141.000     60.000    40.4433   -20.0773   -24.5799   120.0962    -0.1480    -3.0001   -58.6572   132.5737    21.8870    -0.9995     0.0010    14.0000     4.0000     4.0000     2.0000    16.0000     4.0000     6.0000    10.0000    -2.0020     2.0025   159.4167   -41.1662     2.1683    40.1003     4.9935     4.9987     5.0000     5.000
     37     1.1400     0.0000     0.8600    25.2003    14.7000     63.816     26.000 250141.000     60.000    40.5446   -20.0773   -24.6424   120.0962    -0.1480    -3.0001   -58.4975   132.2193    22.1662    -0.9995     0.0010    14.0000     4.0000     4.0000     2.0000    16.0000     4.0000     6.0000    10.0000    -2.0020     2.0025   159.4167   -41.1662     2.1684    39.9003     5.0004     4.9985     5.0000     5.000
     38     1.1400     0.0000     0.8599    24.9994    14.7000     63.788     17.000 250141.000     60.000    40.6465   -20.0773   -24.7056   120.0962    -0.1480    -3.0001   -58.3375   131.8686    22.4402    -0.9995     0.0010    14.0000     4.0000     4.0000     2.0000    16.0000     4.0000     6.0000    10.0000    -2.0020     2.0025   159.4167   -41.1662     2.1684    39.6993     4.9962     4.9992     5.0000     5.000
     39     1.1399     0.0000     0.8601    24.8007    14.7000     63.774     26.000 250141.000     60.000    40.7493   -20.0773   -24.7687   120.0962    -0.1480    -3.0001   -58.1772   131.5203    22.7067    -0.9995     0.0010    14.0000     4.0000     4.0000     2.0000    16.0000     4.0000     6.0000    10.0000    -2.0020     2.0025   159.4167   -41.1662     2.1683    39.5007     4.9950     5.0039     5.0000     5.000
     40     1.1400     0.0000     0.8600    24.5996    14.7000     63.419     27.000 250141.000     60.000    40.8529   -20.0773   -24.8330   120.0962    -0.1480    -3.0001   -58.0165   131.1753    22.9784    -0.9995     0.0010    14.0000     4.0000     4.0000     2.0000    16.0000     4.0000     6.0000    10.0000    -2.0020     2.0025   159.4167   -41.1662     2.1684    39.2996     4.9972     4.9982     5.0000     5.000
     41     1.1401     0.0000     0.8600    24.3999    14.7000     63.540     34.000 250141.000     60.000    40.9572   -20.0773   -24.8973   120.0962    -0.1480    -3.0001   -57.8555   130.8328    23.2453    -0.9995     0.0010    14.0000     4.0000     4.0000     2.0000    16.0000     4.0000     6.0000    10.0000    -2.0020     2.0025   159.4167   -41.1662     2.1685    39.0999     4.9993     5.0003     5.0000     5.000
     42     1.1400     0.0000     0.8600    24.2000    14.7000     63.936     26.000 250141.000     60.000    41.0624   -20.0773   -24.9622   120.0962    -0.1480    -3.0001   -57.6941   130.4928    23.5049    -0.9995     0.0010    14.0000     4.0000     4.0000     2.0000    16.0000     4.0000     6.0000    10.0000    -2.0020     2.0025   159.4167   -41.1662     2.1683    38.9000     4.9945     4.9996     5.0000     5.000
     43     1.1400     0.0000     0.8600    24.0000    14.7000     64.148     36.000 250141.000     60.000    41.1683   -20.0773   -25.0277   120.0962    -0.1480    -3.0001   -57.5324   130.1552    23.7679    -0.9995     0.0010    14.0000     4.0000     4.0000     2.0000    16.0000     4.0000     6.0000    10.0000    -2.0020     2.0025   159.4167   -41.1662     2.1684    38.7000     4.9971     5.0002     5.0000     5.000
