# scan = 104
# date = 10/27/2024
# time = 4:11:48 AM
# proposal = 34735
# experiment = Magnons and paramagnon coupling in MnTe
# experiment_number = 823
# command = scan h 1.36 k 0.0 l 0.64 e 35.2 20.0 0.25 ef 14.7 preset mcu 60
# builtin_command = scan h 1.36 k 0.0 l 0.64 e 35.2 20.0 0.25 ef 14.7 preset mcu 60
# users = Benjamin Frandsen, Songxue Chi, George Yumnam, Huibo Cao, Michael Manley, Raphael Hermann, Eleanor Clements
# local_contact = Eleanor Clements
# scan_title = Scans H0L = (1.0, 0, 1.0) to (1.5, 0, 0.5) - Transverse at (1.36, 0.0, 0.64) - E = 35.2 to 20 mev
# monochromator = PG002
# analyzer = Pg002
# sense = -+-
# collimation = 48-40-40-120
# samplename = MnTe
# sampletype = crystal
# samplemosaic = 30.000000
# latticeconstants = 4.113532,4.113532,6.656209,90.000000,90.000000,120.000000
# ubmatrix = 0.008885,0.000200,-0.150137,0.280567,0.140284,0.004756,-0.000155,-0.243141,0.002621
# mode = 0
# plane_normal = 0.017452,-0.000000,0.999848
# ubconf = UB25Oct2024_84509PM.ini
# preset_type = normal 
# preset_channel = mcu
# preset_value = 60.000000
# def_x = e
# def_y = detector
# col_headers = 
#   Pt.          h          k          l          e         ef       time   detector    monitor        mcu focal_length         m1         m2   mcrystal       marc     mtrans     mfocus         s1         s2        sgl        sgu        bbb        bbl        bbr        bbt        bab        bal        bar        bat        stl        stu         a1         a2          q         ei        vti     sample       temp     temp_2
      1     1.3600     0.0000     0.6402    35.2039    14.7000     81.921     44.000 250141.000     60.000    36.2550   -20.0773   -22.0000   120.0962    -0.1480    -3.0001   -66.1251   149.8080    16.5557    -0.9995     0.0013    14.0000     4.0000     4.0000     2.0000    16.0000     4.0000     6.0000    10.0000    -2.0015     2.0025   159.4167   -41.1662     2.4737    49.9039     5.0003     4.9962     5.0000     5.000
      2     1.3600     0.0000     0.6399    34.9505    14.7000     81.200     19.000 250141.000     60.000    36.3462   -20.0773   -22.0567   120.0962    -0.1480    -3.0001   -65.9424   149.3305    16.9998    -0.9995     0.0013    14.0000     4.0000     4.0000     2.0000    16.0000     4.0000     6.0000    10.0000    -2.0015     2.0025   159.4167   -41.1662     2.4737    49.6505     4.9957     5.0038     5.0000     5.000
      3     1.3600     0.0000     0.6399    34.6999    14.7000     79.795     38.000 250141.000     60.000    36.4381   -20.0773   -22.1133   120.0962    -0.1480    -3.0001   -65.7593   148.8635    17.4299    -0.9995     0.0013    14.0000     4.0000     4.0000     2.0000    16.0000     4.0000     6.0000    10.0000    -2.0015     2.0025   159.4167   -41.1662     2.4736    49.3999     4.9938     5.0003     5.0000     5.000
      4     1.3600     0.0000     0.6400    34.4500    14.7000     78.843     29.000 250141.000     60.000    36.5306   -20.0773   -22.1702   120.0962    -0.1480    -3.0001   -65.5758   148.4062    17.8494    -0.9995     0.0013    14.0000     4.0000     4.0000     2.0000    16.0000     4.0000     6.0000    10.0000    -2.0015     2.0025   159.4167   -41.1662     2.4736    49.1500     5.0059     5.0014     5.0000     5.000
      5     1.3600     0.0000     0.6400    34.1992    14.7000     78.071     31.000 250141.000     60.000    36.6239   -20.0773   -22.2277   120.0962    -0.1480    -3.0001   -65.3920   147.9585    18.2620    -0.9995     0.0013    14.0000     4.0000     4.0000     2.0000    16.0000     4.0000     6.0000    10.0000    -2.0015     2.0025   159.4167   -41.1662     2.4736    48.8992     5.0064     5.0039     5.0000     5.000
      6     1.3600     0.0000     0.6399    33.9501    14.7000     76.887     38.000 250141.000     60.000    36.7179   -20.0773   -22.2852   120.0962    -0.1480    -3.0001   -65.2077   147.5185    18.6685    -0.9995     0.0013    14.0000     4.0000     4.0000     2.0000    16.0000     4.0000     6.0000    10.0000    -2.0015     2.0025   159.4167   -41.1662     2.4737    48.6501     4.9951     4.9980     5.0000     5.000
      7     1.3600     0.0000     0.6400    33.7003    14.7000     76.181     28.000 250141.000     60.000    36.8126   -20.0773   -22.3434   120.0962    -0.1480    -3.0001   -65.0231   147.0865    19.0652    -0.9995     0.0013    14.0000     4.0000     4.0000     2.0000    16.0000     4.0000     6.0000    10.0000    -2.0015     2.0025   159.4167   -41.1662     2.4736    48.4003     5.0069     5.0016     5.0000     5.000
      8     1.3600     0.0000     0.6400    33.4508    14.7000     76.002     30.000 250141.000     60.000    36.9080   -20.0773   -22.4020   120.0962    -0.1480    -3.0001   -64.8382   146.6623    19.4548    -0.9995     0.0013    14.0000     4.0000     4.0000     2.0000    16.0000     4.0000     6.0000    10.0000    -2.0015     2.0025   159.4167   -41.1662     2.4736    48.1507     5.0046     4.9982     5.0000     5.000
      9     1.3600     0.0000     0.6400    33.1999    14.7000     75.510     31.000 250141.000     60.000    37.0042   -20.0773   -22.4613   120.0962    -0.1480    -3.0001   -64.6528   146.2441    19.8398    -0.9995     0.0013    14.0000     4.0000     4.0000     2.0000    16.0000     4.0000     6.0000    10.0000    -2.0015     2.0025   159.4167   -41.1662     2.4736    47.8999     4.9983     4.9934     5.0000     5.000
     10     1.3600     0.0000     0.6399    32.9490    14.7000     75.095     31.000 250141.000     60.000    37.1012   -20.0773   -22.5211   120.0962    -0.1480    -3.0001   -64.4670   145.8331    20.2183    -0.9995     0.0013    14.0000     4.0000     4.0000     2.0000    16.0000     4.0000     6.0000    10.0000    -2.0015     2.0025   159.4167   -41.1662     2.4736    47.6490     4.9984     4.9973     5.0000     5.000
     11     1.3600     0.0000     0.6400    32.7001    14.7000     75.219     28.000 250141.000     60.000    37.1989   -20.0773   -22.5810   120.0962    -0.1480    -3.0001   -64.2809   145.4278    20.5900    -0.9995     0.0013    14.0000     4.0000     4.0000     2.0000    16.0000     4.0000     6.0000    10.0000    -2.0015     2.0025   159.4167   -41.1662     2.4737    47.4001     5.0050     5.0013     5.0000     5.000
     12     1.3600     0.0000     0.6400    32.4504    14.7000     74.976     26.000 250141.000     60.000    37.2974   -20.0773   -22.6415   120.0962    -0.1480    -3.0001   -64.0944   145.0284    20.9563    -0.9995     0.0013    14.0000     4.0000     4.0000     2.0000    16.0000     4.0000     6.0000    10.0000    -2.0015     2.0025   159.4167   -41.1662     2.4737    47.1504     4.9973     5.0039     5.0000     5.000
     13     1.3599     0.0000     0.6401    32.2003    14.7000     74.871     24.000 250141.000     60.000    37.3966   -20.0773   -22.7026   120.0962    -0.1480    -3.0001   -63.9074   144.6344    21.3146    -0.9995     0.0013    14.0000     4.0000     4.0000     2.0000    16.0000     4.0000     6.0000    10.0000    -2.0015     2.0025   159.4167   -41.1662     2.4735    46.9002     4.9957     5.0018     5.0000     5.000
     14     1.3600     0.0000     0.6400    31.9502    14.7000     74.270     21.000 250141.000     60.000    37.4967   -20.0773   -22.7642   120.0962    -0.1480    -3.0001   -63.7201   144.2454    21.6729    -0.9995     0.0013    14.0000     4.0000     4.0000     2.0000    16.0000     4.0000     6.0000    10.0000    -2.0015     2.0025   159.4167   -41.1662     2.4736    46.6502     4.9954     4.9996     5.0000     5.000
     15     1.3600     0.0000     0.6399    31.6996    14.7000     74.568     17.000 250141.000     60.000    37.5976   -20.0773   -22.8264   120.0962    -0.1480    -3.0001   -63.5324   143.8619    22.0278    -0.9995     0.0013    14.0000     4.0000     4.0000     2.0000    16.0000     4.0000     6.0000    10.0000    -2.0015     2.0025   159.4167   -41.1662     2.4737    46.3996     4.9968     4.9960     5.0000     5.000
     16     1.3600     0.0000     0.6399    31.4494    14.7000     74.045     17.000 250141.000     60.000    37.6993   -20.0773   -22.8890   120.0962    -0.1480    -3.0001   -63.3442   143.4826    22.3742    -0.9995     0.0013    14.0000     4.0000     4.0000     2.0000    16.0000     4.0000     6.0000    10.0000    -2.0015     2.0025   159.4167   -41.1662     2.4736    46.1493     4.9940     5.0009     5.0000     5.000
     17     1.3600     0.0000     0.6401    31.2013    14.7000     73.989     13.000 250141.000     60.000    37.8018   -20.0773   -22.9516   120.0962    -0.1480    -3.0001   -63.1557   143.1075    22.7142    -0.9995     0.0013    14.0000     4.0000     4.0000     2.0000    16.0000     4.0000     6.0000    10.0000    -2.0015     2.0025   159.4167   -41.1662     2.4736    45.9013     4.9935     4.9974     5.0000     5.000
     18     1.3600     0.0000     0.6399    30.9494    14.7000     73.347     21.000 250141.000     60.000    37.9052   -20.0773   -23.0157   120.0962    -0.1480    -3.0001   -62.9667   142.7369    23.0569    -0.9995     0.0013    14.0000     4.0000     4.0000     2.0000    16.0000     4.0000     6.0000    10.0000    -2.0015     2.0025   159.4167   -41.1662     2.4736    45.6494     4.9926     5.0001     5.0000     5.000
     19     1.3600     0.0000     0.6400    30.7004    14.7000     72.924     12.000 250141.000     60.000    38.0094   -20.0773   -23.0796   120.0962    -0.1480    -3.0001   -62.7773   142.3704    23.3929    -0.9995     0.0013    14.0000     4.0000     4.0000     2.0000    16.0000     4.0000     6.0000    10.0000    -2.0015     2.0025   159.4167   -41.1662     2.4737    45.4004     5.0081     5.0013     5.0000     5.000
     20     1.3600     0.0000     0.6400    30.4493    14.7000     72.651     13.000 250141.000     60.000    38.1145   -20.0773   -23.1446   120.0962    -0.1480    -3.0001   -62.5875   142.0074    23.7225    -0.9995     0.0013    14.0000     4.0000     4.0000     2.0000    16.0000     4.0000     6.0000    10.0000    -2.0015     2.0025   159.4167   -41.1662     2.4736    45.1493     4.9957     5.0019     5.0000     5.000
     21     1.3600     0.0000     0.6400    30.2003    14.7000     72.299     17.000 250141.000     60.000    38.2204   -20.0773   -23.2096   120.0962    -0.1480    -3.0001   -62.3973   141.6484    24.0518    -0.9995     0.0013    14.0000     4.0000     4.0000     2.0000    16.0000     4.0000     6.0000    10.0000    -2.0015     2.0025   159.4167   -41.1662     2.4736    44.9003     5.0060     5.0004     5.0000     5.000
     22     1.3600     0.0000     0.6400    29.9494    14.7000     71.878     14.000 250141.000     60.000    38.3273   -20.0773   -23.2756   120.0962    -0.1480    -3.0001   -62.2066   141.2925    24.3770    -0.9995     0.0013    14.0000     4.0000     4.0000     2.0000    16.0000     4.0000     6.0000    10.0000    -2.0015     2.0025   159.4167   -41.1662     2.4736    44.6494     4.9969     5.0022     5.0000     5.000
     23     1.3600     0.0000     0.6400    29.7004    14.7000     71.471     19.000 250141.000     60.000    38.4350   -20.0773   -23.3417   120.0962    -0.1480    -3.0001   -62.0155   140.9402    24.6963    -0.9995     0.0013    14.0000     4.0000     4.0000     2.0000    16.0000     4.0000     6.0000    10.0000    -2.0015     2.0025   159.4167   -41.1662     2.4736    44.4004     5.0085     4.9995     5.0000     5.000
     24     1.3600     0.0000     0.6399    29.4497    14.7000     71.409     13.000 250141.000     60.000    38.5437   -20.0773   -23.4088   120.0962    -0.1480    -3.0001   -61.8240   140.5909    25.0193    -0.9995     0.0013    14.0000     4.0000     4.0000     2.0000    16.0000     4.0000     6.0000    10.0000    -2.0015     2.0025   159.4167   -41.1662     2.4737    44.1497     4.9982     4.9979     5.0000     5.000
     25     1.3600     0.0000     0.6400    29.2004    14.7000     71.177     15.000 250141.000     60.000    38.6533   -20.0773   -23.4761   120.0962    -0.1480    -3.0001   -61.6320   140.2450    25.3325    -0.9995     0.0013    14.0000     4.0000     4.0000     2.0000    16.0000     4.0000     6.0000    10.0000    -2.0015     2.0025   159.4167   -41.1662     2.4736    43.9004     5.0047     4.9965     5.0000     5.000
     26     1.3600     0.0000     0.6400    28.9496    14.7000     71.432     24.000 250141.000     60.000    38.7638   -20.0773   -23.5444   120.0962    -0.1480    -3.0001   -61.4396   139.9016    25.6461    -0.9995     0.0013    14.0000     4.0000     4.0000     2.0000    16.0000     4.0000     6.0000    10.0000    -2.0015     2.0025   159.4167   -41.1662     2.4736    43.6496     4.9984     4.9993     5.0000     5.000
     27     1.3600     0.0000     0.6400    28.7006    14.7000     71.072      9.000 250141.000     60.000    38.8753   -20.0773   -23.6128   120.0962    -0.1480    -3.0001   -61.2468   139.5614    25.9559    -0.9995     0.0013    14.0000     4.0000     4.0000     2.0000    16.0000     4.0000     6.0000    10.0000    -2.0015     2.0025   159.4167   -41.1662     2.4737    43.4006     5.0003     4.9979     5.0000     5.000
     28     1.3600     0.0000     0.6400    28.4493    14.7000     71.141     13.000 250141.000     60.000    38.9878   -20.0773   -23.6825   120.0962    -0.1480    -3.0001   -61.0535   139.2239    26.2632    -0.9995     0.0013    14.0000     4.0000     4.0000     2.0000    16.0000     4.0000     6.0000    10.0000    -2.0015     2.0025   159.4167   -41.1662     2.4736    43.1493     5.0035     5.0045     5.0000     5.000
     29     1.3600     0.0000     0.6400    28.2007    14.7000     71.065      8.000 250141.000     60.000    39.1012   -20.0773   -23.7520   120.0962    -0.1480    -3.0001   -60.8597   138.8886    26.5679    -0.9995     0.0013    14.0000     4.0000     4.0000     2.0000    16.0000     4.0000     6.0000    10.0000    -2.0015     2.0025   159.4167   -41.1662     2.4736    42.9007     4.9976     4.9977     5.0000     5.000
     30     1.3600     0.0000     0.6400    27.9492    14.7000     70.536     16.000 250141.000     60.000    39.2156   -20.0773   -23.8229   120.0962    -0.1480    -3.0001   -60.6655   138.5556    26.8711    -0.9995     0.0013    14.0000     4.0000     4.0000     2.0000    16.0000     4.0000     6.0000    10.0000    -2.0015     2.0025   159.4167   -41.1662     2.4736    42.6492     5.0061     5.0021     5.0000     5.000
     31     1.3600     0.0000     0.6400    27.7008    14.7000     69.933      9.000 250141.000     60.000    39.3311   -20.0773   -23.8936   120.0962    -0.1480    -3.0001   -60.4708   138.2255    27.1709    -0.9995     0.0013    14.0000     4.0000     4.0000     2.0000    16.0000     4.0000     6.0000    10.0000    -2.0015     2.0025   159.4167   -41.1662     2.4737    42.4008     4.9995     4.9954     5.0000     5.000
     32     1.3600     0.0000     0.6400    27.4491    14.7000     69.477     10.000 250141.000     60.000    39.4476   -20.0773   -23.9659   120.0962    -0.1480    -3.0001   -60.2756   137.8980    27.4683    -0.9995     0.0013    14.0000     4.0000     4.0000     2.0000    16.0000     4.0000     6.0000    10.0000    -2.0015     2.0025   159.4167   -41.1662     2.4735    42.1491     4.9934     4.9994     5.0000     5.000
     33     1.3600     0.0000     0.6400    27.2008    14.7000     68.919      8.000 250141.000     60.000    39.5651   -20.0773   -24.0379   120.0962    -0.1480    -3.0001   -60.0800   137.5719    27.7656    -0.9995     0.0013    14.0000     4.0000     4.0000     2.0000    16.0000     4.0000     6.0000    10.0000    -2.0015     2.0025   159.4167   -41.1662     2.4737    41.9008     5.0013     5.0009     5.0000     5.000
     34     1.3600     0.0000     0.6399    26.9493    14.7000     68.355     10.000 250141.000     60.000    39.6836   -20.0773   -24.1115   120.0962    -0.1480    -3.0001   -59.8839   137.2484    28.0593    -0.9995     0.0013    14.0000     4.0000     4.0000     2.0000    16.0000     4.0000     6.0000    10.0000    -2.0015     2.0025   159.4167   -41.1662     2.4736    41.6493     4.9937     5.0023     5.0000     5.000
     35     1.3600     0.0000     0.6400    26.7009    14.7000     67.579     10.000 250141.000     60.000    39.8033   -20.0773   -24.1848   120.0962    -0.1480    -3.0001   -59.6874   136.9264    28.3504    -0.9995     0.0013    14.0000     4.0000     4.0000     2.0000    16.0000     4.0000     6.0000    10.0000    -2.0015     2.0025   159.4167   -41.1662     2.4737    41.4009     5.0067     4.9983     5.0000     5.000
     36     1.3600     0.0000     0.6399    26.4494    14.7000     66.786     10.000 250141.000     60.000    39.9240   -20.0773   -24.2597   120.0962    -0.1480    -3.0001   -59.4903   136.6072    28.6416    -0.9995     0.0013    14.0000     4.0000     4.0000     2.0000    16.0000     4.0000     6.0000    10.0000    -2.0015     2.0025   159.4167   -41.1662     2.4736    41.1494     4.9966     4.9975     5.0000     5.000
     37     1.3600     0.0000     0.6400    26.2008    14.7000     66.119     10.000 250141.000     60.000    40.0458   -20.0773   -24.3344   120.0962    -0.1480    -3.0001   -59.2927   136.2894    28.9274    -0.9995     0.0013    14.0000     4.0000     4.0000     2.0000    16.0000     4.0000     6.0000    10.0000    -2.0015     2.0025   159.4167   -41.1662     2.4736    40.9008     5.0016     4.9973     5.0000     5.000
     38     1.3601     0.0000     0.6400    25.9499    14.7000     65.241     12.000 250141.000     60.000    40.1688   -20.0773   -24.4106   120.0962    -0.1480    -3.0001   -59.0947   135.9734    29.2170    -0.9995     0.0013    14.0000     4.0000     4.0000     2.0000    16.0000     4.0000     6.0000    10.0000    -2.0015     2.0025   159.4167   -41.1662     2.4737    40.6499     4.9948     4.9982     5.0000     5.000
     39     1.3600     0.0000     0.6400    25.6998    14.7000     64.996     10.000 250141.000     60.000    40.2929   -20.0773   -24.4872   120.0962    -0.1480    -3.0001   -58.8961   135.6590    29.4977    -0.9995     0.0013    14.0000     4.0000     4.0000     2.0000    16.0000     4.0000     6.0000    10.0000    -2.0015     2.0025   159.4167   -41.1662     2.4736    40.3998     4.9987     5.0030     5.0000     5.000
     40     1.3600     0.0000     0.6400    25.4504    14.7000     64.365     15.000 250141.000     60.000    40.4181   -20.0773   -24.5643   120.0962    -0.1480    -3.0001   -58.6971   135.3461    29.7819    -0.9995     0.0013    14.0000     4.0000     4.0000     2.0000    16.0000     4.0000     6.0000    10.0000    -2.0015     2.0025   159.4167   -41.1662     2.4737    40.1504     4.9938     4.9994     5.0000     5.000
     41     1.3600     0.0000     0.6400    25.2002    14.7000     64.049      8.000 250141.000     60.000    40.5446   -20.0773   -24.6424   120.0962    -0.1480    -3.0001   -58.4975   135.0359    30.0620    -0.9995     0.0013    14.0000     4.0000     4.0000     2.0000    16.0000     4.0000     6.0000    10.0000    -2.0015     2.0025   159.4167   -41.1662     2.4736    39.9002     5.0050     5.0043     5.0000     5.000
     42     1.3600     0.0000     0.6400    24.9498    14.7000     63.942     12.000 250141.000     60.000    40.6722   -20.0773   -24.7213   120.0962    -0.1480    -3.0001   -58.2975   134.7261    30.3414    -0.9995     0.0013    14.0000     4.0000     4.0000     2.0000    16.0000     4.0000     6.0000    10.0000    -2.0015     2.0025   159.4167   -41.1662     2.4736    39.6498     5.0000     5.0015     5.0000     5.000
     43     1.3600     0.0000     0.6400    24.6997    14.7000     63.789     10.000 250141.000     60.000    40.8010   -20.0773   -24.8009   120.0962    -0.1480    -3.0001   -58.0969   134.4187    30.6199    -0.9995     0.0013    14.0000     4.0000     4.0000     2.0000    16.0000     4.0000     6.0000    10.0000    -2.0015     2.0025   159.4167   -41.1662     2.4736    39.3997     4.9985     4.9968     5.0000     5.000
