# scan = 69
# date = 10/25/2024
# time = 7:44:41 PM
# proposal = 34735
# experiment = Magnons and paramagnon coupling in MnTe
# experiment_number = 823
# command = scan bab 0 24 2
# builtin_command = scan bab 0 24 2
# users = Benjamin Frandsen, Songxue Chi, George Yumnam, Huibo Cao, Michael Manley, Raphael Hermann, Eleanor Clements
# local_contact = Eleanor Clements
# scan_title = slit scan with (100)
# monochromator = PG002
# analyzer = Pg002
# sense = -+-
# collimation = 48-40-40-120
# samplename = MnTe
# sampletype = crystal
# samplemosaic = 30.000000
# latticeconstants = 4.113061,4.113061,6.656209,90.000000,90.000000,120.000000
# ubmatrix = 0.009025,0.000269,-0.150135,0.280595,0.140297,0.004830,-0.000158,-0.243170,0.002621
# mode = 0
# plane_normal = 0.017452,-0.000000,0.999847
# ubconf = UB25Oct2024_74223PM.ini
# preset_type = normal 
# preset_channel = time
# preset_value = 1.000000
# def_x = bab
# def_y = detector
# col_headers = 
#   Pt.        bab       time   detector    monitor        mcu focal_length         m1         m2   mcrystal       marc     mtrans     mfocus         s1         s2        sgl        sgu        bbb        bbl        bbr        bbt        bal        bar        bat        stl        stu         a1         a2          q          h          k          l         ei         ef          e        vti     sample       temp     temp_2
      1     0.0000      1.000   3023.000   2515.000      0.603    66.7975   -20.0773   -41.1660   120.0962    -0.1480    -3.0001   -34.2897   111.1805    38.6768    -0.9988     0.0015    35.0000    35.0000    35.0000    35.0000    35.0000    35.0000    35.0000    -2.0000     2.0025   159.4167   -41.1662     1.7640     1.0000     0.0000     0.0000    14.7002    14.7000     0.0002     5.0041     5.0001     5.0000     5.000
      2     2.0000      1.000   3898.000   2660.000      0.638    66.7975   -20.0773   -41.1660   120.0962    -0.1480    -3.0001   -34.2897   111.1805    38.6768    -0.9988     0.0015    35.0000    35.0000    35.0000    35.0000    35.0000    35.0000    35.0000    -2.0000     2.0025   159.4167   -41.1662     1.7640     1.0000     0.0000     0.0000    14.7002    14.7000     0.0002     5.0014     5.0044     5.0000     5.000
      3     4.0000      1.000   4686.000   2612.000      0.627    66.7975   -20.0773   -41.1660   120.0962    -0.1480    -3.0001   -34.2897   111.1805    38.6768    -0.9988     0.0015    35.0000    35.0000    35.0000    35.0000    35.0000    35.0000    35.0000    -2.0000     2.0025   159.4167   -41.1662     1.7640     1.0000     0.0000     0.0000    14.7002    14.7000     0.0002     4.9918     4.9988     5.0000     5.000
      4     6.0000      1.000   5358.000   2649.000      0.635    66.7975   -20.0773   -41.1660   120.0962    -0.1480    -3.0001   -34.2897   111.1805    38.6768    -0.9988     0.0015    35.0000    35.0000    35.0000    35.0000    35.0000    35.0000    35.0000    -2.0000     2.0025   159.4167   -41.1662     1.7640     1.0000     0.0000     0.0000    14.7002    14.7000     0.0002     5.0019     5.0001     5.0000     5.000
      5     8.0000      1.000   6342.000   2618.000      0.628    66.7975   -20.0773   -41.1660   120.0962    -0.1480    -3.0001   -34.2897   111.1805    38.6768    -0.9988     0.0015    35.0000    35.0000    35.0000    35.0000    35.0000    35.0000    35.0000    -2.0000     2.0025   159.4167   -41.1662     1.7640     1.0000     0.0000     0.0000    14.7002    14.7000     0.0002     5.0072     4.9981     5.0000     5.000
      6    10.0000      1.000   7048.000   2548.000      0.611    66.7975   -20.0773   -41.1660   120.0962    -0.1480    -3.0001   -34.2897   111.1805    38.6768    -0.9988     0.0015    35.0000    35.0000    35.0000    35.0000    35.0000    35.0000    35.0000    -2.0000     2.0025   159.4167   -41.1662     1.7640     1.0000     0.0000     0.0000    14.7002    14.7000     0.0002     4.9953     5.0024     5.0000     5.000
      7    12.0000      1.000   7765.000   2669.000      0.640    66.7975   -20.0773   -41.1660   120.0962    -0.1480    -3.0001   -34.2897   111.1805    38.6768    -0.9988     0.0015    35.0000    35.0000    35.0000    35.0000    35.0000    35.0000    35.0000    -2.0000     2.0025   159.4167   -41.1662     1.7640     1.0000     0.0000     0.0000    14.7002    14.7000     0.0002     4.9959     5.0013     5.0000     5.000
      8    14.0000      1.000   8276.000   2585.000      0.620    66.7975   -20.0773   -41.1660   120.0962    -0.1480    -3.0001   -34.2897   111.1805    38.6768    -0.9988     0.0015    35.0000    35.0000    35.0000    35.0000    35.0000    35.0000    35.0000    -2.0000     2.0025   159.4167   -41.1662     1.7640     1.0000     0.0000     0.0000    14.7002    14.7000     0.0002     5.0053     4.9980     5.0000     5.000
      9    16.0000      1.000   9369.000   2544.000      0.610    66.7975   -20.0773   -41.1660   120.0962    -0.1480    -3.0001   -34.2897   111.1805    38.6768    -0.9988     0.0015    35.0000    35.0000    35.0000    35.0000    35.0000    35.0000    35.0000    -2.0000     2.0025   159.4167   -41.1662     1.7640     1.0000     0.0000     0.0000    14.7002    14.7000     0.0002     4.9955     5.0012     5.0000     5.000
     10    18.0000      1.000   9366.000   2499.000      0.599    66.7975   -20.0773   -41.1660   120.0962    -0.1480    -3.0001   -34.2897   111.1805    38.6768    -0.9988     0.0015    35.0000    35.0000    35.0000    35.0000    35.0000    35.0000    35.0000    -2.0000     2.0025   159.4167   -41.1662     1.7640     1.0000     0.0000     0.0000    14.7002    14.7000     0.0002     5.0036     4.9972     5.0000     5.000
     11    20.0000      1.000   9379.000   2661.000      0.638    66.7975   -20.0773   -41.1660   120.0962    -0.1480    -3.0001   -34.2897   111.1805    38.6768    -0.9988     0.0015    35.0000    35.0000    35.0000    35.0000    35.0000    35.0000    35.0000    -2.0000     2.0025   159.4167   -41.1662     1.7640     1.0000     0.0000     0.0000    14.7002    14.7000     0.0002     4.9953     5.0060     5.0000     5.000
     12    22.0000      1.000   9512.000   2620.000      0.628    66.7975   -20.0773   -41.1660   120.0962    -0.1480    -3.0001   -34.2897   111.1805    38.6768    -0.9988     0.0015    35.0000    35.0000    35.0000    35.0000    35.0000    35.0000    35.0000    -2.0000     2.0025   159.4167   -41.1662     1.7640     1.0000     0.0000     0.0000    14.7002    14.7000     0.0002     4.9984     5.0023     5.0000     5.000
     13    24.0000      1.000   9456.000   2621.000      0.629    66.7975   -20.0773   -41.1660   120.0962    -0.1480    -3.0001   -34.2897   111.1805    38.6768    -0.9988     0.0015    35.0000    35.0000    35.0000    35.0000    35.0000    35.0000    35.0000    -2.0000     2.0025   159.4167   -41.1662     1.7640     1.0000     0.0000     0.0000    14.7002    14.7000     0.0002     5.0041     4.9984     5.0000     5.000
# Sum of Counts = 93478
# Center of Mass = 14.241083+/-0.069599
# Full Width Half-Maximum = 13.739239+/-0.054243
# 7:46:04 PM  10/25/2024   scan completed.
