# scan = 75
# date = 10/25/2024
# time = 7:52:59 PM
# proposal = 34735
# experiment = Magnons and paramagnon coupling in MnTe
# experiment_number = 823
# command = scan bbl 0 24 2
# builtin_command = scan bbl 0 24 2
# users = Benjamin Frandsen, Songxue Chi, George Yumnam, Huibo Cao, Michael Manley, Raphael Hermann, Eleanor Clements
# local_contact = Eleanor Clements
# scan_title = slit scan with (100)
# monochromator = PG002
# analyzer = Pg002
# sense = -+-
# collimation = 48-40-40-120
# samplename = MnTe
# sampletype = crystal
# samplemosaic = 30.000000
# latticeconstants = 4.113061,4.113061,6.656209,90.000000,90.000000,120.000000
# ubmatrix = 0.009025,0.000269,-0.150135,0.280595,0.140297,0.004830,-0.000158,-0.243170,0.002621
# mode = 0
# plane_normal = 0.017452,-0.000000,0.999847
# ubconf = UB25Oct2024_74223PM.ini
# preset_type = normal 
# preset_channel = time
# preset_value = 1.000000
# def_x = bbl
# def_y = detector
# col_headers = 
#   Pt.        bbl       time   detector    monitor        mcu focal_length         m1         m2   mcrystal       marc     mtrans     mfocus         s1         s2        sgl        sgu        bbb        bbr        bbt        bab        bal        bar        bat        stl        stu         a1         a2          q          h          k          l         ei         ef          e        vti     sample       temp     temp_2
      1     0.0000      1.000   8424.000   2636.000      0.632    66.7975   -20.0773   -41.1660   120.0962    -0.1480    -3.0001   -34.2897   111.1805    38.6768    -0.9988     0.0015    24.0000    35.0000    24.0000    24.0000    24.0000    24.0000    24.0000    -2.0000     2.0025   159.4167   -41.1662     1.7640     1.0000     0.0000     0.0000    14.7002    14.7000     0.0002     5.0004     5.0035     5.0000     5.000
      2     2.0000      1.000   9549.000   2581.000      0.619    66.7975   -20.0773   -41.1660   120.0962    -0.1480    -3.0001   -34.2897   111.1805    38.6768    -0.9988     0.0015    24.0000    35.0000    24.0000    24.0000    24.0000    24.0000    24.0000    -2.0000     2.0025   159.4167   -41.1662     1.7640     1.0000     0.0000     0.0000    14.7002    14.7000     0.0002     5.0023     5.0028     5.0000     5.000
      3     4.0000      1.000   9578.000   2573.000      0.617    66.7975   -20.0773   -41.1660   120.0962    -0.1480    -3.0001   -34.2897   111.1805    38.6768    -0.9988     0.0015    24.0000    35.0000    24.0000    24.0000    24.0000    24.0000    24.0000    -2.0000     2.0025   159.4167   -41.1662     1.7640     1.0000     0.0000     0.0000    14.7002    14.7000     0.0002     4.9958     4.9998     5.0000     5.000
      4     6.0000      1.000   9433.000   2554.000      0.613    66.7975   -20.0773   -41.1660   120.0962    -0.1480    -3.0001   -34.2897   111.1805    38.6768    -0.9988     0.0015    24.0000    35.0000    24.0000    24.0000    24.0000    24.0000    24.0000    -2.0000     2.0025   159.4167   -41.1662     1.7640     1.0000     0.0000     0.0000    14.7002    14.7000     0.0002     5.0055     5.0034     5.0000     5.000
      5     8.0000      1.000   9368.000   2682.000      0.643    66.7975   -20.0773   -41.1660   120.0962    -0.1480    -3.0001   -34.2897   111.1805    38.6768    -0.9988     0.0015    24.0000    35.0000    24.0000    24.0000    24.0000    24.0000    24.0000    -2.0000     2.0025   159.4167   -41.1662     1.7640     1.0000     0.0000     0.0000    14.7002    14.7000     0.0002     4.9955     5.0056     5.0000     5.000
      6    10.0000      1.000   9387.000   2590.000      0.621    66.7975   -20.0773   -41.1660   120.0962    -0.1480    -3.0001   -34.2897   111.1805    38.6768    -0.9988     0.0015    24.0000    35.0000    24.0000    24.0000    24.0000    24.0000    24.0000    -2.0000     2.0025   159.4167   -41.1662     1.7640     1.0000     0.0000     0.0000    14.7002    14.7000     0.0002     5.0071     4.9953     5.0000     5.000
      7    12.0000      1.000   9349.000   2621.000      0.629    66.7975   -20.0773   -41.1660   120.0962    -0.1480    -3.0001   -34.2897   111.1805    38.6768    -0.9988     0.0015    24.0000    35.0000    24.0000    24.0000    24.0000    24.0000    24.0000    -2.0000     2.0025   159.4167   -41.1662     1.7640     1.0000     0.0000     0.0000    14.7002    14.7000     0.0002     4.9958     4.9989     5.0000     5.000
      8    14.0000      1.000   9358.000   2558.000      0.614    66.7975   -20.0773   -41.1660   120.0962    -0.1480    -3.0001   -34.2897   111.1805    38.6768    -0.9988     0.0015    24.0000    35.0000    24.0000    24.0000    24.0000    24.0000    24.0000    -2.0000     2.0025   159.4167   -41.1662     1.7640     1.0000     0.0000     0.0000    14.7002    14.7000     0.0002     5.0061     5.0009     5.0000     5.000
      9    16.0000      1.000   9311.000   2641.000      0.633    66.7975   -20.0773   -41.1660   120.0962    -0.1480    -3.0001   -34.2897   111.1805    38.6768    -0.9988     0.0015    24.0000    35.0000    24.0000    24.0000    24.0000    24.0000    24.0000    -2.0000     2.0025   159.4167   -41.1662     1.7640     1.0000     0.0000     0.0000    14.7002    14.7000     0.0002     4.9941     5.0006     5.0000     5.000
     10    18.0000      1.000   9478.000   2564.000      0.615    66.7975   -20.0773   -41.1660   120.0962    -0.1480    -3.0001   -34.2897   111.1805    38.6768    -0.9988     0.0015    24.0000    35.0000    24.0000    24.0000    24.0000    24.0000    24.0000    -2.0000     2.0025   159.4167   -41.1662     1.7640     1.0000     0.0000     0.0000    14.7002    14.7000     0.0002     5.0021     4.9954     5.0000     5.000
     11    20.0000      1.000   9344.000   2602.000      0.624    66.7975   -20.0773   -41.1660   120.0962    -0.1480    -3.0001   -34.2897   111.1805    38.6768    -0.9988     0.0015    24.0000    35.0000    24.0000    24.0000    24.0000    24.0000    24.0000    -2.0000     2.0025   159.4167   -41.1662     1.7640     1.0000     0.0000     0.0000    14.7002    14.7000     0.0002     4.9976     5.0021     5.0000     5.000
     12    22.0000      1.000   9507.000   2634.000      0.632    66.7975   -20.0773   -41.1660   120.0962    -0.1480    -3.0001   -34.2897   111.1805    38.6768    -0.9988     0.0015    24.0000    35.0000    24.0000    24.0000    24.0000    24.0000    24.0000    -2.0000     2.0025   159.4167   -41.1662     1.7640     1.0000     0.0000     0.0000    14.7002    14.7000     0.0002     4.9958     4.9976     5.0000     5.000
     13    24.0000      1.000   9303.000   2650.000      0.636    66.7975   -20.0773   -41.1660   120.0962    -0.1480    -3.0001   -34.2897   111.1805    38.6768    -0.9988     0.0015    24.0000    35.0000    24.0000    24.0000    24.0000    24.0000    24.0000    -2.0000     2.0025   159.4167   -41.1662     1.7640     1.0000     0.0000     0.0000    14.7002    14.7000     0.0002     5.0056     4.9982     5.0000     5.000
# Sum of Counts = 121389
# Center of Mass = 12.067881+/-0.053439
# Full Width Half-Maximum = 14.884493+/-0.046281
# 7:54:22 PM  10/25/2024   scan completed.
