# scan = 45
# date = 10/25/2024
# time = 6:40:34 PM
# proposal = 34735
# experiment = Magnons and paramagnon coupling in MnTe
# experiment_number = 823
# command = scanrel s2  2 -2 0.2
# builtin_command = scan s2 @(s2)+2 @(s2)+-2 0.200000
# users = Benjamin Frandsen, Songxue Chi, George Yumnam, Huibo Cao, Michael Manley, Raphael Hermann, Eleanor Clements
# local_contact = Eleanor Clements
# scan_title = check at 5k around 002 for s2
# monochromator = PG002
# analyzer = Pg002
# sense = -+-
# collimation = 48-40-40-120
# samplename = MnTe
# sampletype = crystal
# samplemosaic = 30.000000
# latticeconstants = 4.132500,4.132500,6.660000,90.000000,90.000000,120.000000
# ubmatrix = 0.010819,-0.000080,-0.149999,0.279210,0.139654,0.005815,-0.000189,-0.242016,0.003405
# mode = 0
# plane_normal = 0.017452,0.000000,0.999842
# ubconf = UB25Oct2024_63658PM.ini
# preset_type = normal 
# preset_channel = time
# preset_value = 1.000000
# def_x = s2
# def_y = detector
# col_headers = 
#   Pt.         s2       time   detector    monitor        mcu focal_length         m1         m2   mcrystal       marc     mtrans     mfocus         s1        sgl        sgu        bbb        bbl        bbr        bbt        bab        bal        bar        bat        stl        stu         a1         a2          q          h          k          l         ei         ef          e        vti     sample       temp     temp_2
      1    43.4666      1.000     13.000   2591.000      0.621    66.7975   -20.0773   -41.1660   120.0962    -0.1480    -3.0001   -34.2897    23.0972    -0.9988     0.0015    35.0000    35.0000    35.0000    35.0000    35.0000    35.0000    35.0000    35.0000    -2.0000     2.0025   159.4167   -41.1662     1.9725    -0.0202     0.0068     2.0905    14.7002    14.7000     0.0002     5.0016     5.0005     5.0000     5.000
      2    43.2681      1.000      7.000   2583.000      0.620    66.7975   -20.0773   -41.1660   120.0962    -0.1480    -3.0001   -34.2897    23.0972    -0.9988     0.0015    35.0000    35.0000    35.0000    35.0000    35.0000    35.0000    35.0000    35.0000    -2.0000     2.0025   159.4167   -41.1662     1.9639    -0.0182     0.0068     2.0815    14.7002    14.7000     0.0002     4.9932     5.0010     5.0000     5.000
      3    43.0668      1.000     11.000   2487.000      0.597    66.7975   -20.0773   -41.1660   120.0962    -0.1480    -3.0001   -34.2897    23.0972    -0.9988     0.0015    35.0000    35.0000    35.0000    35.0000    35.0000    35.0000    35.0000    35.0000    -2.0000     2.0025   159.4167   -41.1662     1.9552    -0.0161     0.0068     2.0723    14.7002    14.7000     0.0002     5.0028     5.0008     5.0000     5.000
      4    42.8666      1.000     11.000   2577.000      0.618    66.7975   -20.0773   -41.1660   120.0962    -0.1480    -3.0001   -34.2897    23.0972    -0.9988     0.0015    35.0000    35.0000    35.0000    35.0000    35.0000    35.0000    35.0000    35.0000    -2.0000     2.0025   159.4167   -41.1662     1.9466    -0.0141     0.0067     2.0632    14.7002    14.7000     0.0002     4.9957     5.0039     5.0000     5.000
      5    42.6654      1.000     17.000   2649.000      0.635    66.7975   -20.0773   -41.1660   120.0962    -0.1480    -3.0001   -34.2897    23.0972    -0.9988     0.0015    35.0000    35.0000    35.0000    35.0000    35.0000    35.0000    35.0000    35.0000    -2.0000     2.0025   159.4167   -41.1662     1.9379    -0.0121     0.0067     2.0540    14.7002    14.7000     0.0002     5.0010     4.9977     5.0000     5.000
      6    42.4638      1.000    115.000   2723.000      0.653    66.7975   -20.0773   -41.1660   120.0962    -0.1480    -3.0001   -34.2897    23.0972    -0.9988     0.0015    35.0000    35.0000    35.0000    35.0000    35.0000    35.0000    35.0000    35.0000    -2.0000     2.0025   159.4167   -41.1662     1.9291    -0.0101     0.0067     2.0448    14.7002    14.7000     0.0002     4.9931     4.9988     5.0000     5.000
      7    42.2670      1.000    801.000   2498.000      0.599    66.7975   -20.0773   -41.1660   120.0962    -0.1480    -3.0001   -34.2897    23.0972    -0.9988     0.0015    35.0000    35.0000    35.0000    35.0000    35.0000    35.0000    35.0000    35.0000    -2.0000     2.0025   159.4167   -41.1662     1.9206    -0.0082     0.0066     2.0357    14.7002    14.7000     0.0002     4.9908     4.9964     5.0000     5.000
      8    42.0666      1.000   2213.000   2562.000      0.615    66.7975   -20.0773   -41.1660   120.0962    -0.1480    -3.0001   -34.2897    23.0972    -0.9988     0.0015    35.0000    35.0000    35.0000    35.0000    35.0000    35.0000    35.0000    35.0000    -2.0000     2.0025   159.4167   -41.1662     1.9119    -0.0063     0.0066     2.0265    14.7002    14.7000     0.0002     4.9976     5.0007     5.0000     5.000
      9    41.8660      1.000   3398.000   2626.000      0.630    66.7975   -20.0773   -41.1660   120.0962    -0.1480    -3.0001   -34.2897    23.0972    -0.9988     0.0015    35.0000    35.0000    35.0000    35.0000    35.0000    35.0000    35.0000    35.0000    -2.0000     2.0025   159.4167   -41.1662     1.9032    -0.0043     0.0066     2.0173    14.7002    14.7000     0.0002     5.0033     4.9992     5.0000     5.000
     10    41.6662      1.000   2921.000   2581.000      0.619    66.7975   -20.0773   -41.1660   120.0962    -0.1480    -3.0001   -34.2897    23.0972    -0.9988     0.0015    35.0000    35.0000    35.0000    35.0000    35.0000    35.0000    35.0000    35.0000    -2.0000     2.0025   159.4167   -41.1662     1.8945    -0.0024     0.0066     2.0081    14.7002    14.7000     0.0002     4.9937     5.0008     5.0000     5.000
     11    41.4652      1.000   1315.000   2574.000      0.617    66.7975   -20.0773   -41.1660   120.0962    -0.1480    -3.0001   -34.2897    23.0972    -0.9988     0.0015    35.0000    35.0000    35.0000    35.0000    35.0000    35.0000    35.0000    35.0000    -2.0000     2.0025   159.4167   -41.1662     1.8858    -0.0005     0.0065     1.9989    14.7002    14.7000     0.0002     4.9908     4.9972     5.0000     5.000
     12    41.2672      1.000    430.000   2554.000      0.613    66.7975   -20.0773   -41.1660   120.0962    -0.1480    -3.0001   -34.2897    23.0972    -0.9988     0.0015    35.0000    35.0000    35.0000    35.0000    35.0000    35.0000    35.0000    35.0000    -2.0000     2.0025   159.4167   -41.1662     1.8772     0.0013     0.0065     1.9897    14.7002    14.7000     0.0002     5.0008     4.9936     5.0000     5.000
     13    41.0685      1.000    137.000   2617.000      0.628    66.7975   -20.0773   -41.1660   120.0962    -0.1480    -3.0001   -34.2897    23.0972    -0.9988     0.0015    35.0000    35.0000    35.0000    35.0000    35.0000    35.0000    35.0000    35.0000    -2.0000     2.0025   159.4167   -41.1662     1.8685     0.0031     0.0065     1.9805    14.7002    14.7000     0.0002     4.9960     4.9962     5.0000     5.000
     14    40.8664      1.000     36.000   2622.000      0.629    66.7975   -20.0773   -41.1660   120.0962    -0.1480    -3.0001   -34.2897    23.0972    -0.9988     0.0015    35.0000    35.0000    35.0000    35.0000    35.0000    35.0000    35.0000    35.0000    -2.0000     2.0025   159.4167   -41.1662     1.8597     0.0050     0.0064     1.9712    14.7002    14.7000     0.0002     4.9993     4.9949     5.0000     5.000
     15    40.6660      1.000     14.000   2663.000      0.639    66.7975   -20.0773   -41.1660   120.0962    -0.1480    -3.0001   -34.2897    23.0972    -0.9988     0.0015    35.0000    35.0000    35.0000    35.0000    35.0000    35.0000    35.0000    35.0000    -2.0000     2.0025   159.4167   -41.1662     1.8510     0.0068     0.0064     1.9619    14.7002    14.7000     0.0002     5.0036     4.9974     5.0000     5.000
     16    40.4652      1.000     10.000   2623.000      0.629    66.7975   -20.0773   -41.1660   120.0962    -0.1480    -3.0001   -34.2897    23.0972    -0.9988     0.0015    35.0000    35.0000    35.0000    35.0000    35.0000    35.0000    35.0000    35.0000    -2.0000     2.0025   159.4167   -41.1662     1.8422     0.0086     0.0064     1.9526    14.7002    14.7000     0.0002     5.0056     5.0004     5.0000     5.000
     17    40.2683      1.000     13.000   2687.000      0.645    66.7975   -20.0773   -41.1660   120.0962    -0.1480    -3.0001   -34.2897    23.0972    -0.9988     0.0015    35.0000    35.0000    35.0000    35.0000    35.0000    35.0000    35.0000    35.0000    -2.0000     2.0025   159.4167   -41.1662     1.8337     0.0104     0.0063     1.9434    14.7002    14.7000     0.0002     4.9926     4.9992     5.0000     5.000
     18    40.0658      1.000     10.000   2681.000      0.643    66.7975   -20.0773   -41.1660   120.0962    -0.1480    -3.0001   -34.2897    23.0972    -0.9988     0.0015    35.0000    35.0000    35.0000    35.0000    35.0000    35.0000    35.0000    35.0000    -2.0000     2.0025   159.4167   -41.1662     1.8248     0.0122     0.0063     1.9340    14.7002    14.7000     0.0002     4.9933     5.0006     5.0000     5.000
     19    39.8664      1.000     15.000   2595.000      0.622    66.7975   -20.0773   -41.1660   120.0962    -0.1480    -3.0001   -34.2897    23.0972    -0.9988     0.0015    35.0000    35.0000    35.0000    35.0000    35.0000    35.0000    35.0000    35.0000    -2.0000     2.0025   159.4167   -41.1662     1.8161     0.0139     0.0063     1.9247    14.7002    14.7000     0.0002     5.0048     4.9989     5.0000     5.000
     20    39.6654      1.000      9.000   2570.000      0.616    66.7975   -20.0773   -41.1660   120.0962    -0.1480    -3.0001   -34.2897    23.0972    -0.9988     0.0015    35.0000    35.0000    35.0000    35.0000    35.0000    35.0000    35.0000    35.0000    -2.0000     2.0025   159.4167   -41.1662     1.8073     0.0156     0.0063     1.9154    14.7002    14.7000     0.0002     4.9926     5.0012     5.0000     5.000
     21    39.4664      1.000      4.000   2587.000      0.621    66.7975   -20.0773   -41.1660   120.0962    -0.1480    -3.0001   -34.2897    23.0972    -0.9988     0.0015    35.0000    35.0000    35.0000    35.0000    35.0000    35.0000    35.0000    35.0000    -2.0000     2.0025   159.4167   -41.1662     1.7986     0.0173     0.0062     1.9061    14.7002    14.7000     0.0002     4.9972     4.9997     5.0000     5.000
# Sum of Counts = 11500
# Center of Mass = 41.801646+/-0.551272
# Full Width Half-Maximum = 0.627827+/-0.298809
# 6:41:26 PM  10/25/2024   scan completed.
