# scan = 84
# date = 10/25/2024
# time = 11:10:57 PM
# proposal = 34735
# experiment = Magnons and paramagnon coupling in MnTe
# experiment_number = 823
# command =  scan h 1.36 k 0.0 l 0.64 e 35.25 5.0 0.25 ef 14.7 preset mcu 10
# builtin_command = scan h 1.36 k 0.0 l 0.64 e 35.25 5.0 0.25 ef 14.7 preset mcu 10
# users = Benjamin Frandsen, Songxue Chi, George Yumnam, Huibo Cao, Michael Manley, Raphael Hermann, Eleanor Clements
# local_contact = Eleanor Clements
# scan_title = Quick Scans H0L = (1.0+%h, 0, 1.0-%h) - Transverse, h= 0.36
# monochromator = PG002
# analyzer = Pg002
# sense = -+-
# collimation = 48-40-40-120
# samplename = MnTe
# sampletype = crystal
# samplemosaic = 30.000000
# latticeconstants = 4.113532,4.113532,6.656209,90.000000,90.000000,120.000000
# ubmatrix = 0.008885,0.000200,-0.150137,0.280567,0.140284,0.004756,-0.000155,-0.243141,0.002621
# mode = 0
# plane_normal = 0.017452,-0.000000,0.999848
# ubconf = UB25Oct2024_84509PM.ini
# preset_type = normal 
# preset_channel = mcu
# preset_value = 10.000000
# def_x = e
# def_y = detector
# col_headers = 
#   Pt.          h          k          l          e         ef       time   detector    monitor        mcu focal_length         m1         m2   mcrystal       marc     mtrans     mfocus         s1         s2        sgl        sgu        bbb        bbl        bbr        bbt        bab        bal        bar        bat        stl        stu         a1         a2          q         ei        vti     sample       temp     temp_2
      1     1.3600     0.0000     0.6401    35.2522    14.7000     13.595      7.000  41691.000     10.000    36.2369   -20.0773   -21.9892   120.0962    -0.1480    -3.0001   -66.1616   149.9049    16.4652    -0.9995     0.0015    14.0000     4.0000     4.0000     2.0000    16.0000     4.0000     6.0000    10.0000    -2.0005     2.0025   159.4167   -41.1662     2.4736    49.9522     4.9999     4.9945     5.0000     5.000
      2     1.3600     0.0000     0.6401    35.0006    14.7000     13.438      4.000  41691.000     10.000    36.3279   -20.0773   -22.0455   120.0962    -0.1480    -3.0001   -65.9790   149.4250    16.9091    -0.9995     0.0015    14.0000     4.0000     4.0000     2.0000    16.0000     4.0000     6.0000    10.0000    -2.0005     2.0025   159.4167   -41.1662     2.4736    49.7006     5.0043     5.0035     5.0000     5.000
      3     1.3600     0.0000     0.6400    34.7498    14.7000     13.275      8.000  41691.000     10.000    36.4196   -20.0773   -22.1020   120.0962    -0.1480    -3.0001   -65.7959   148.9559    17.3425    -0.9995     0.0015    14.0000     4.0000     4.0000     2.0000    16.0000     4.0000     6.0000    10.0000    -2.0005     2.0025   159.4167   -41.1662     2.4736    49.4498     4.9938     4.9974     5.0000     5.000
      4     1.3600     0.0000     0.6400    34.4999    14.7000     13.118      6.000  41691.000     10.000    36.5121   -20.0773   -22.1588   120.0962    -0.1480    -3.0001   -65.6125   148.4974    17.7666    -0.9995     0.0015    14.0000     4.0000     4.0000     2.0000    16.0000     4.0000     6.0000    10.0000    -2.0005     2.0025   159.4167   -41.1662     2.4736    49.1999     4.9977     5.0022     5.0000     5.000
      5     1.3600     0.0000     0.6400    34.2498    14.7000     12.920      3.000  41691.000     10.000    36.6052   -20.0773   -22.2160   120.0962    -0.1480    -3.0001   -65.4288   148.0471    18.1811    -0.9995     0.0015    14.0000     4.0000     4.0000     2.0000    16.0000     4.0000     6.0000    10.0000    -2.0005     2.0025   159.4167   -41.1662     2.4736    48.9498     5.0038     4.9992     5.0000     5.000
      6     1.3600     0.0000     0.6400    34.0010    14.7000     12.740      3.000  41691.000     10.000    36.6990   -20.0773   -22.2734   120.0962    -0.1480    -3.0001   -65.2446   147.6056    18.5872    -0.9995     0.0015    14.0000     4.0000     4.0000     2.0000    16.0000     4.0000     6.0000    10.0000    -2.0005     2.0025   159.4167   -41.1662     2.4737    48.7010     5.0039     5.0009     5.0000     5.000
      7     1.3600     0.0000     0.6399    33.7493    14.7000     12.546      6.000  41691.000     10.000    36.7936   -20.0773   -22.3320   120.0962    -0.1480    -3.0001   -65.0601   147.1728    18.9874    -0.9995     0.0015    14.0000     4.0000     4.0000     2.0000    16.0000     4.0000     6.0000    10.0000    -2.0005     2.0025   159.4167   -41.1662     2.4736    48.4493     4.9941     5.0015     5.0000     5.000
      8     1.3600     0.0000     0.6400    33.5006    14.7000     12.590     12.000  41691.000     10.000    36.8889   -20.0773   -22.3902   120.0962    -0.1480    -3.0001   -64.8752   146.7460    19.3782    -0.9995     0.0015    14.0000     4.0000     4.0000     2.0000    16.0000     4.0000     6.0000    10.0000    -2.0005     2.0025   159.4167   -41.1662     2.4737    48.2006     5.0046     4.9972     5.0000     5.000
      9     1.3600     0.0000     0.6400    33.2498    14.7000     12.596      7.000  41691.000     10.000    36.9849   -20.0773   -22.4495   120.0962    -0.1480    -3.0001   -64.6899   146.3275    19.7630    -0.9995     0.0015    14.0000     4.0000     4.0000     2.0000    16.0000     4.0000     6.0000    10.0000    -2.0005     2.0025   159.4167   -41.1662     2.4736    47.9498     4.9967     4.9992     5.0000     5.000
     10     1.3600     0.0000     0.6400    32.9995    14.7000     12.515      6.000  41691.000     10.000    37.0817   -20.0773   -22.5091   120.0962    -0.1480    -3.0001   -64.5042   145.9149    20.1414    -0.9995     0.0015    14.0000     4.0000     4.0000     2.0000    16.0000     4.0000     6.0000    10.0000    -2.0005     2.0025   159.4167   -41.1662     2.4736    47.6995     4.9965     4.9998     5.0000     5.000
     11     1.3600     0.0000     0.6400    32.7506    14.7000     12.465      3.000  41691.000     10.000    37.1793   -20.0773   -22.5688   120.0962    -0.1480    -3.0001   -64.3182   145.5084    20.5136    -0.9995     0.0015    14.0000     4.0000     4.0000     2.0000    16.0000     4.0000     6.0000    10.0000    -2.0005     2.0025   159.4167   -41.1662     2.4736    47.4506     5.0080     4.9986     5.0000     5.000
     12     1.3600     0.0000     0.6400    32.4999    14.7000     12.601      4.000  41691.000     10.000    37.2776   -20.0773   -22.6295   120.0962    -0.1480    -3.0001   -64.1317   145.1078    20.8813    -0.9995     0.0015    14.0000     4.0000     4.0000     2.0000    16.0000     4.0000     6.0000    10.0000    -2.0005     2.0025   159.4167   -41.1662     2.4736    47.1999     4.9932     5.0002     5.0000     5.000
     13     1.3600     0.0000     0.6400    32.2505    14.7000     12.426      4.000  41691.000     10.000    37.3767   -20.0773   -22.6903   120.0962    -0.1480    -3.0001   -63.9448   144.7129    21.2459    -0.9995     0.0015    14.0000     4.0000     4.0000     2.0000    16.0000     4.0000     6.0000    10.0000    -2.0005     2.0025   159.4167   -41.1662     2.4737    46.9505     5.0020     5.0019     5.0000     5.000
     14     1.3600     0.0000     0.6400    31.9999    14.7000     12.370      6.000  41691.000     10.000    37.4766   -20.0773   -22.7519   120.0962    -0.1480    -3.0001   -63.7576   144.3230    21.6030    -0.9995     0.0015    14.0000     4.0000     4.0000     2.0000    16.0000     4.0000     6.0000    10.0000    -2.0005     2.0025   159.4167   -41.1662     2.4736    46.6999     4.9961     4.9997     5.0000     5.000
     15     1.3600     0.0000     0.6400    31.7501    14.7000     12.188      6.000  41691.000     10.000    37.5773   -20.0773   -22.8138   120.0962    -0.1480    -3.0001   -63.5699   143.9381    21.9559    -0.9995     0.0015    14.0000     4.0000     4.0000     2.0000    16.0000     4.0000     6.0000    10.0000    -2.0005     2.0025   159.4167   -41.1662     2.4736    46.4501     4.9973     5.0017     5.0000     5.000
     16     1.3599     0.0000     0.6400    31.4990    14.7000     12.366      3.000  41691.000     10.000    37.6789   -20.0773   -22.8765   120.0962    -0.1480    -3.0001   -63.3819   143.5579    22.3030    -0.9995     0.0015    14.0000     4.0000     4.0000     2.0000    16.0000     4.0000     6.0000    10.0000    -2.0005     2.0025   159.4167   -41.1662     2.4735    46.1990     4.9981     4.9976     5.0000     5.000
     17     1.3600     0.0000     0.6400    31.2508    14.7000     12.282      1.000  41691.000     10.000    37.7812   -20.0773   -22.9391   120.0962    -0.1480    -3.0001   -63.1934   143.1823    22.6488    -0.9995     0.0015    14.0000     4.0000     4.0000     2.0000    16.0000     4.0000     6.0000    10.0000    -2.0005     2.0025   159.4167   -41.1662     2.4737    45.9508     4.9947     5.0008     5.0000     5.000
     18     1.3600     0.0000     0.6400    31.0000    14.7000     12.245      1.000  41691.000     10.000    37.8844   -20.0773   -23.0028   120.0962    -0.1480    -3.0001   -63.0045   142.8106    22.9894    -0.9995     0.0015    14.0000     4.0000     4.0000     2.0000    16.0000     4.0000     6.0000    10.0000    -2.0005     2.0025   159.4167   -41.1662     2.4737    45.7000     4.9960     4.9976     5.0000     5.000
     19     1.3600     0.0000     0.6400    30.7498    14.7000     12.056      1.000  41691.000     10.000    37.9885   -20.0773   -23.0669   120.0962    -0.1480    -3.0001   -62.8152   142.4435    23.3235    -0.9995     0.0015    14.0000     4.0000     4.0000     2.0000    16.0000     4.0000     6.0000    10.0000    -2.0005     2.0025   159.4167   -41.1662     2.4736    45.4498     5.0000     5.0045     5.0000     5.000
     20     1.3600     0.0000     0.6400    30.5007    14.7000     12.008      2.000  41691.000     10.000    38.0934   -20.0773   -23.1312   120.0962    -0.1480    -3.0001   -62.6255   142.0796    23.6587    -0.9995     0.0015    14.0000     4.0000     4.0000     2.0000    16.0000     4.0000     6.0000    10.0000    -2.0005     2.0025   159.4167   -41.1662     2.4737    45.2007     5.0016     5.0004     5.0000     5.000
     21     1.3600     0.0000     0.6399    30.2489    14.7000     12.012      2.000  41691.000     10.000    38.1992   -20.0773   -23.1968   120.0962    -0.1480    -3.0001   -62.4354   141.7199    23.9872    -0.9995     0.0015    14.0000     4.0000     4.0000     2.0000    16.0000     4.0000     6.0000    10.0000    -2.0005     2.0025   159.4167   -41.1662     2.4736    44.9488     5.0085     4.9978     5.0000     5.000
     22     1.3600     0.0000     0.6400    30.0008    14.7000     11.910      2.000  41691.000     10.000    38.3059   -20.0773   -23.2620   120.0962    -0.1480    -3.0001   -62.2448   141.3634    24.3105    -0.9995     0.0015    14.0000     4.0000     4.0000     2.0000    16.0000     4.0000     6.0000    10.0000    -2.0005     2.0025   159.4167   -41.1662     2.4736    44.7008     4.9939     4.9969     5.0000     5.000
     23     1.3600     0.0000     0.6400    29.7501    14.7000     11.866      0.000  41691.000     10.000    38.4134   -20.0773   -23.3284   120.0962    -0.1480    -3.0001   -62.0538   141.0104    24.6351    -0.9995     0.0015    14.0000     4.0000     4.0000     2.0000    16.0000     4.0000     6.0000    10.0000    -2.0005     2.0025   159.4167   -41.1662     2.4737    44.4501     5.0048     4.9954     5.0000     5.000
     24     1.3600     0.0000     0.6400    29.5004    14.7000     11.958      0.000  41691.000     10.000    38.5219   -20.0773   -23.3952   120.0962    -0.1480    -3.0001   -61.8623   140.6605    24.9532    -0.9995     0.0015    14.0000     4.0000     4.0000     2.0000    16.0000     4.0000     6.0000    10.0000    -2.0005     2.0025   159.4167   -41.1662     2.4736    44.2004     4.9975     5.0050     5.0000     5.000
     25     1.3600     0.0000     0.6399    29.2488    14.7000     11.762      3.000  41691.000     10.000    38.6313   -20.0773   -23.4630   120.0962    -0.1480    -3.0001   -61.6704   140.3141    25.2697    -0.9995     0.0015    14.0000     4.0000     4.0000     2.0000    16.0000     4.0000     6.0000    10.0000    -2.0005     2.0025   159.4167   -41.1662     2.4736    43.9488     5.0060     4.9981     5.0000     5.000
     26     1.3600     0.0000     0.6400    29.0005    14.7000     11.755      3.000  41691.000     10.000    38.7417   -20.0773   -23.5305   120.0962    -0.1480    -3.0001   -61.4781   139.9701    25.5829    -0.9995     0.0015    14.0000     4.0000     4.0000     2.0000    16.0000     4.0000     6.0000    10.0000    -2.0005     2.0025   159.4167   -41.1662     2.4736    43.7005     4.9944     4.9982     5.0000     5.000
     27     1.3600     0.0000     0.6400    28.7500    14.7000     11.749      3.000  41691.000     10.000    38.8530   -20.0773   -23.5992   120.0962    -0.1480    -3.0001   -61.2854   139.6293    25.8937    -0.9995     0.0015    14.0000     4.0000     4.0000     2.0000    16.0000     4.0000     6.0000    10.0000    -2.0005     2.0025   159.4167   -41.1662     2.4736    43.4500     5.0034     4.9977     5.0000     5.000
     28     1.3600     0.0000     0.6400    28.4999    14.7000     11.688      4.000  41691.000     10.000    38.9652   -20.0773   -23.6684   120.0962    -0.1480    -3.0001   -61.0922   139.2908    26.2018    -0.9995     0.0015    14.0000     4.0000     4.0000     2.0000    16.0000     4.0000     6.0000    10.0000    -2.0005     2.0025   159.4167   -41.1662     2.4736    43.1999     4.9979     5.0034     5.0000     5.000
     29     1.3600     0.0000     0.6400    28.2503    14.7000     11.697      2.000  41691.000     10.000    39.0785   -20.0773   -23.7381   120.0962    -0.1480    -3.0001   -60.8985   138.9554    26.5061    -0.9995     0.0015    14.0000     4.0000     4.0000     2.0000    16.0000     4.0000     6.0000    10.0000    -2.0005     2.0025   159.4167   -41.1662     2.4736    42.9503     5.0073     5.0029     5.0000     5.000
     30     1.3600     0.0000     0.6400    27.9998    14.7000     11.652      2.000  41691.000     10.000    39.1927   -20.0773   -23.8086   120.0962    -0.1480    -3.0001   -60.7044   138.6224    26.8109    -0.9995     0.0015    14.0000     4.0000     4.0000     2.0000    16.0000     4.0000     6.0000    10.0000    -2.0005     2.0025   159.4167   -41.1662     2.4736    42.6998     4.9954     4.9994     5.0000     5.000
     31     1.3599     0.0000     0.6400    27.7496    14.7000     11.572      1.000  41691.000     10.000    39.3079   -20.0773   -23.8797   120.0962    -0.1480    -3.0001   -60.5098   138.2912    27.1091    -0.9995     0.0015    14.0000     4.0000     4.0000     2.0000    16.0000     4.0000     6.0000    10.0000    -2.0005     2.0025   159.4167   -41.1662     2.4735    42.4496     4.9976     4.9987     5.0000     5.000
     32     1.3600     0.0000     0.6400    27.4999    14.7000     11.575      2.000  41691.000     10.000    39.4242   -20.0773   -23.9513   120.0962    -0.1480    -3.0001   -60.3147   137.9634    27.4103    -0.9995     0.0015    14.0000     4.0000     4.0000     2.0000    16.0000     4.0000     6.0000    10.0000    -2.0005     2.0025   159.4167   -41.1662     2.4736    42.1999     4.9996     4.9999     5.0000     5.000
     33     1.3600     0.0000     0.6400    27.2504    14.7000     11.499      1.000  41691.000     10.000    39.5415   -20.0773   -24.0235   120.0962    -0.1480    -3.0001   -60.1192   137.6366    27.7051    -0.9995     0.0015    14.0000     4.0000     4.0000     2.0000    16.0000     4.0000     6.0000    10.0000    -2.0005     2.0025   159.4167   -41.1662     2.4736    41.9504     4.9938     4.9976     5.0000     5.000
     34     1.3600     0.0000     0.6400    26.9999    14.7000     11.407      1.000  41691.000     10.000    39.6598   -20.0773   -24.0966   120.0962    -0.1480    -3.0001   -59.9232   137.3130    28.0004    -0.9995     0.0015    14.0000     4.0000     4.0000     2.0000    16.0000     4.0000     6.0000    10.0000    -2.0005     2.0025   159.4167   -41.1662     2.4736    41.6999     4.9940     4.9992     5.0000     5.000
     35     1.3600     0.0000     0.6400    26.7500    14.7000     11.287      3.000  41691.000     10.000    39.7792   -20.0773   -24.1702   120.0962    -0.1480    -3.0001   -59.7267   136.9907    28.2906    -0.9995     0.0015    14.0000     4.0000     4.0000     2.0000    16.0000     4.0000     6.0000    10.0000    -2.0005     2.0025   159.4167   -41.1662     2.4736    41.4500     5.0015     4.9963     5.0000     5.000
     36     1.3600     0.0000     0.6400    26.5000    14.7000     11.121      2.000  41691.000     10.000    39.8998   -20.0773   -24.2446   120.0962    -0.1480    -3.0001   -59.5297   136.6707    28.5821    -0.9995     0.0015    14.0000     4.0000     4.0000     2.0000    16.0000     4.0000     6.0000    10.0000    -2.0005     2.0025   159.4167   -41.1662     2.4736    41.2000     4.9954     4.9972     5.0000     5.000
     37     1.3600     0.0000     0.6400    26.2505    14.7000     10.987      1.000  41691.000     10.000    40.0214   -20.0773   -24.3194   120.0962    -0.1480    -3.0001   -59.3323   136.3529    28.8711    -0.9995     0.0015    14.0000     4.0000     4.0000     2.0000    16.0000     4.0000     6.0000    10.0000    -2.0005     2.0025   159.4167   -41.1662     2.4737    40.9505     5.0065     5.0023     5.0000     5.000
     38     1.3600     0.0000     0.6400    25.9998    14.7000     10.876      0.000  41691.000     10.000    40.1441   -20.0773   -24.3954   120.0962    -0.1480    -3.0001   -59.1343   136.0361    29.1571    -0.9995     0.0015    14.0000     4.0000     4.0000     2.0000    16.0000     4.0000     6.0000    10.0000    -2.0005     2.0025   159.4167   -41.1662     2.4736    40.6998     4.9946     5.0018     5.0000     5.000
     39     1.3600     0.0000     0.6400    25.7501    14.7000     10.702      0.000  41691.000     10.000    40.2680   -20.0773   -24.4717   120.0962    -0.1480    -3.0001   -58.9359   135.7219    29.4437    -0.9995     0.0015    14.0000     4.0000     4.0000     2.0000    16.0000     4.0000     6.0000    10.0000    -2.0005     2.0025   159.4167   -41.1662     2.4737    40.4501     4.9968     5.0050     5.0000     5.000
     40     1.3600     0.0000     0.6400    25.5008    14.7000     10.738      6.000  41691.000     10.000    40.3930   -20.0773   -24.5487   120.0962    -0.1480    -3.0001   -58.7370   135.4091    29.7246    -0.9995     0.0015    14.0000     4.0000     4.0000     2.0000    16.0000     4.0000     6.0000    10.0000    -2.0005     2.0025   159.4167   -41.1662     2.4736    40.2008     4.9967     5.0019     5.0000     5.000
     41     1.3600     0.0000     0.6400    25.2496    14.7000     10.630      0.000  41691.000     10.000    40.5192   -20.0773   -24.6269   120.0962    -0.1480    -3.0001   -58.5375   135.0976    30.0063    -0.9995     0.0015    14.0000     4.0000     4.0000     2.0000    16.0000     4.0000     6.0000    10.0000    -2.0005     2.0025   159.4167   -41.1662     2.4736    39.9496     4.9973     4.9998     5.0000     5.000
     42     1.3600     0.0000     0.6400    24.9995    14.7000     10.563      2.000  41691.000     10.000    40.6465   -20.0773   -24.7056   120.0962    -0.1480    -3.0001   -58.3375   134.7879    30.2851    -0.9995     0.0015    14.0000     4.0000     4.0000     2.0000    16.0000     4.0000     6.0000    10.0000    -2.0005     2.0025   159.4167   -41.1662     2.4736    39.6995     4.9969     4.9987     5.0000     5.000
     43     1.3600     0.0000     0.6400    24.7503    14.7000     10.567      0.000  41691.000     10.000    40.7751   -20.0773   -24.7847   120.0962    -0.1480    -3.0001   -58.1370   134.4800    30.5640    -0.9995     0.0015    14.0000     4.0000     4.0000     2.0000    16.0000     4.0000     6.0000    10.0000    -2.0005     2.0025   159.4167   -41.1662     2.4736    39.4503     4.9949     5.0009     5.0000     5.000
