# scan = 59
# date = 10/25/2024
# time = 7:22:51 PM
# proposal = 34735
# experiment = Magnons and paramagnon coupling in MnTe
# experiment_number = 823
# command = th2th 2 -2 1
# builtin_command = scan s2 @(s2)+2 @(s2)+-2 1.000000 s1 @(s1)+(2/2) @(s1)+(-2/2) 0.500000
# users = Benjamin Frandsen, Songxue Chi, George Yumnam, Huibo Cao, Michael Manley, Raphael Hermann, Eleanor Clements
# local_contact = Eleanor Clements
# scan_title = check scans 0 0 2
# monochromator = PG002
# analyzer = Pg002
# sense = -+-
# collimation = 48-40-40-120
# samplename = MnTe
# sampletype = crystal
# samplemosaic = 30.000000
# latticeconstants = 4.090770,4.090770,6.664219,90.000000,90.000000,120.000000
# ubmatrix = 0.007368,-0.000582,-0.149981,0.282174,0.141087,0.003917,-0.000129,-0.244480,0.002618
# mode = 0
# plane_normal = 0.017452,-0.000000,0.999846
# ubconf = UB25Oct2024_72211PM.ini
# preset_type = normal 
# preset_channel = time
# preset_value = 1.000000
# def_x = s2
# def_y = detector
# col_headers = 
#   Pt.         s2         s1       time   detector    monitor        mcu focal_length         m1         m2   mcrystal       marc     mtrans     mfocus        sgl        sgu        bbb        bbl        bbr        bbt        bab        bal        bar        bat        stl        stu         a1         a2          q          h          k          l         ei         ef          e        vti     sample       temp     temp_2
      1    43.4603    23.2265      1.000     18.000   2493.000      0.598    66.7975   -20.0773   -41.1660   120.0962    -0.1480    -3.0001   -34.2897    -0.9988     0.0015    35.0000    35.0000    35.0000    35.0000    35.0000    35.0000    35.0000    35.0000    -2.0000     2.0025   159.4167   -41.1662     1.9722    -0.0000     0.0000     2.0918    14.7002    14.7000     0.0002     5.0012     4.9969     5.0000     5.000
      2    42.4581    22.7270      1.000     65.000   2614.000      0.627    66.7975   -20.0773   -41.1660   120.0962    -0.1480    -3.0001   -34.2897    -0.9988     0.0015    35.0000    35.0000    35.0000    35.0000    35.0000    35.0000    35.0000    35.0000    -2.0000     2.0025   159.4167   -41.1662     1.9289     0.0000     0.0000     2.0459    14.7002    14.7000     0.0002     4.9987     4.9980     5.0000     5.000
      3    41.4585    22.2269      1.000  10185.000   2614.000      0.627    66.7975   -20.0773   -41.1660   120.0962    -0.1480    -3.0001   -34.2897    -0.9988     0.0015    35.0000    35.0000    35.0000    35.0000    35.0000    35.0000    35.0000    35.0000    -2.0000     2.0025   159.4167   -41.1662     1.8855     0.0000     0.0000     1.9998    14.7002    14.7000     0.0002     5.0039     4.9987     5.0000     5.000
      4    40.4609    21.7269      1.000     18.000   2715.000      0.651    66.7975   -20.0773   -41.1660   120.0962    -0.1480    -3.0001   -34.2897    -0.9988     0.0015    35.0000    35.0000    35.0000    35.0000    35.0000    35.0000    35.0000    35.0000    -2.0000     2.0025   159.4167   -41.1662     1.8421    -0.0000     0.0000     1.9538    14.7002    14.7000     0.0002     5.0089     5.0027     5.0000     5.000
      5    39.4601    21.2269      1.000     12.000   2532.000      0.607    66.7975   -20.0773   -41.1660   120.0962    -0.1480    -3.0001   -34.2897    -0.9988     0.0015    35.0000    35.0000    35.0000    35.0000    35.0000    35.0000    35.0000    35.0000    -2.0000     2.0025   159.4167   -41.1662     1.7983    -0.0000     0.0000     1.9074    14.7002    14.7000     0.0002     4.9994     5.0039     5.0000     5.000
# Sum of Counts = 10298
# Center of Mass = 41.464236+/-0.577848
# Full Width Half-Maximum = 0.280509+/-0.080830
# 7:23:10 PM  10/25/2024   scan completed.
