# scan = 159
# date = 9/8/2024
# time = 2:13:30 AM
# proposal = 32905
# experiment = Effects of electric field on phonon dispersion and lifetimes of poled PMN-30PT
# experiment_number = 812
# command = scan h 2 k -0.25 l 0 e 20 0.5 0.25 preset mcu 30
# builtin_command = scan h 2 k -0.25 l 0 e 20 0.5 0.25 preset mcu 30
# users = George Yumnam, Michael Manley, Puspa Upreti, Raphael Hermann, SHAOFEI WANG
# local_contact = Songxue Chi
# scan_title = (2,-0.25,0) G to X transverse mode scan at 390V after volatge breaks
# monochromator = PG002
# analyzer = Pg002
# sense = -+-
# collimation = 48-40-40-120
# samplename = PMN-30PT
# sampletype = crystal
# samplemosaic = 30.000000
# latticeconstants = 4.023634,4.023634,4.023634,90.000000,90.000000,90.000000
# ubmatrix = -0.008055,-0.248252,-0.008588,-0.248328,0.007840,0.006285,-0.006007,0.008785,-0.248304
# mode = 0
# plane_normal = 0.034555,-0.025290,0.999083
# ubconf = UB04Sep2024_115522AM.ini
# preset_type = normal
# preset_channel = mcu
# preset_value = 30.000000
# def_x = e
# def_y = detector
# col_headers =
#   Pt.          h          k          l          e       time   detector    monitor        mcu focal_length         m1         m2   mcrystal       marc     mtrans     mfocus       ampl         dc       freq     output       temp     temp_2         s1         s2        sgl        sgu        bbb        bbl        bbr        bbt        bab        bal        bar        bat        stl        stu         a1         a2          q         ei         ef   ampl_out output_state        vti     sample
      1     2.0000    -0.2501    -0.0001    20.0027     25.119     30.000 194311.000     30.000    43.4765   -20.0773   -26.4546   120.0962    -0.1480    -3.0001   -54.2224     0.0000   390.0000     0.0000     1.0000   300.0000   300.0000   -45.8681    50.2645    -1.9790    -1.4485    20.0000    20.0000    10.0000    20.0000    26.0000    10.0000    16.0000    20.0000    -0.0005     0.0005   159.4164   -41.1662     3.1474    34.7027    14.7000     2.0000     1.0000   300.0730     0.000
      2     2.0000    -0.2500    -0.0001    19.7498     25.060     20.000 194311.000     30.000    43.6339   -20.0773   -26.5533   120.0962    -0.1480    -3.0001   -54.0105     0.0000   390.0000     0.0000     1.0000   300.0000   300.0000   -46.0393    50.5090    -1.9790    -1.4485    20.0000    20.0000    10.0000    20.0000    26.0000    10.0000    16.0000    20.0000    -0.0005     0.0005   159.4164   -41.1662     3.1474    34.4498    14.7000     2.0000     1.0000   300.0350     0.000
      3     2.0000    -0.2500    -0.0001    19.4998     25.080     27.000 194311.000     30.000    43.7931   -20.0773   -26.6519   120.0962    -0.1480    -3.0001   -53.7978     0.0000   390.0000     0.0000     1.0000   300.0000   300.0000   -46.2108    50.7503    -1.9790    -1.4485    20.0000    20.0000    10.0000    20.0000    26.0000    10.0000    16.0000    20.0000    -0.0005     0.0005   159.4164   -41.1662     3.1474    34.1998    14.7000     2.0000     1.0000   300.0220     0.000
      4     2.0000    -0.2500    -0.0001    19.2499     25.243     39.000 194311.000     30.000    43.9541   -20.0773   -26.7516   120.0962    -0.1480    -3.0001   -53.5845     0.0000   390.0000     0.0000     1.0000   300.0000   300.0000   -46.3816    50.9934    -1.9790    -1.4485    20.0000    20.0000    10.0000    20.0000    26.0000    10.0000    16.0000    20.0000    -0.0005     0.0005   159.4164   -41.1662     3.1475    33.9499    14.7000     2.0000     1.0000   299.9970     0.000
      5     2.0000    -0.2500    -0.0001    19.0004     25.385     27.000 194311.000     30.000    44.1168   -20.0773   -26.8523   120.0962    -0.1480    -3.0001   -53.3706     0.0000   390.0000     0.0000     1.0000   300.0000   300.0000   -46.5525    51.2346    -1.9790    -1.4485    20.0000    20.0000    10.0000    20.0000    26.0000    10.0000    16.0000    20.0000    -0.0005     0.0005   159.4164   -41.1662     3.1475    33.7005    14.7000     2.0000     1.0000   299.9790     0.000
      6     2.0000    -0.2500    -0.0001    18.7494     25.544     42.000 194311.000     30.000    44.2813   -20.0773   -26.9548   120.0962    -0.1480    -3.0001   -53.1560     0.0000   390.0000     0.0000     1.0000   300.0000   300.0000   -46.7230    51.4775    -1.9790    -1.4485    20.0000    20.0000    10.0000    20.0000    26.0000    10.0000    16.0000    20.0000    -0.0005     0.0005   159.4164   -41.1662     3.1475    33.4494    14.7000     2.0000     1.0000   299.9980     0.000
      7     2.0001    -0.2500    -0.0001    18.5002     25.557     35.000 194311.000     30.000    44.4478   -20.0773   -27.0577   120.0962    -0.1480    -3.0001   -52.9407     0.0000   390.0000     0.0000     1.0000   300.0000   300.0000   -46.8936    51.7200    -1.9790    -1.4485    20.0000    20.0000    10.0000    20.0000    26.0000    10.0000    16.0000    20.0000    -0.0005     0.0005   159.4164   -41.1662     3.1475    33.2002    14.7000     2.0000     1.0000   299.9970     0.000
      8     2.0001    -0.2500    -0.0001    18.2501     25.865     43.000 194311.000     30.000    44.6161   -20.0773   -27.1621   120.0962    -0.1480    -3.0001   -52.7248     0.0000   390.0000     0.0000     1.0000   300.0000   300.0000   -47.0633    51.9643    -1.9790    -1.4485    20.0000    20.0000    10.0000    20.0000    26.0000    10.0000    16.0000    20.0000    -0.0005     0.0005   159.4164   -41.1662     3.1476    32.9501    14.7000     2.0000     1.0000   300.0040     0.000
      9     2.0000    -0.2500    -0.0001    17.9999     25.948     33.000 194311.000     30.000    44.7863   -20.0773   -27.2678   120.0962    -0.1480    -3.0001   -52.5081     0.0000   390.0000     0.0000     1.0000   300.0000   300.0000   -47.2338    52.2064    -1.9790    -1.4485    20.0000    20.0000    10.0000    20.0000    26.0000    10.0000    16.0000    20.0000    -0.0005     0.0005   159.4164   -41.1662     3.1475    32.7000    14.7000     2.0000     1.0000   300.0060     0.000
     10     2.0000    -0.2500    -0.0001    17.7506     26.121     41.000 194311.000     30.000    44.9585   -20.0773   -27.3744   120.0962    -0.1480    -3.0001   -52.2908     0.0000   390.0000     0.0000     1.0000   300.0000   300.0000   -47.4030    52.4483    -1.9790    -1.4485    20.0000    20.0000    10.0000    20.0000    26.0000    10.0000    16.0000    20.0000    -0.0005     0.0005   159.4164   -41.1662     3.1475    32.4506    14.7000     2.0000     1.0000   299.9960     0.000
     11     2.0000    -0.2500    -0.0001    17.4997     26.269     41.000 194311.000     30.000    45.1326   -20.0773   -27.4829   120.0962    -0.1480    -3.0001   -52.0728     0.0000   390.0000     0.0000     1.0000   300.0000   300.0000   -47.5729    52.6932    -1.9790    -1.4485    20.0000    20.0000    10.0000    20.0000    26.0000    10.0000    16.0000    20.0000    -0.0005     0.0005   159.4164   -41.1662     3.1475    32.1997    14.7000     2.0000     1.0000   299.9890     0.000
     12     2.0000    -0.2500    -0.0001    17.2498     26.404     44.000 194311.000     30.000    45.3089   -20.0773   -27.5924   120.0962    -0.1480    -3.0001   -51.8540     0.0000   390.0000     0.0000     1.0000   300.0000   300.0000   -47.7422    52.9385    -1.9790    -1.4485    20.0000    20.0000    10.0000    20.0000    26.0000    10.0000    16.0000    20.0000    -0.0005     0.0005   159.4164   -41.1662     3.1475    31.9498    14.7000     2.0000     1.0000   299.9990     0.000
     13     2.0001    -0.2500    -0.0001    17.0001     26.386     41.000 194311.000     30.000    45.4872   -20.0773   -27.7029   120.0962    -0.1480    -3.0001   -51.6345     0.0000   390.0000     0.0000     1.0000   300.0000   300.0000   -47.9116    53.1855    -1.9790    -1.4485    20.0000    20.0000    10.0000    20.0000    26.0000    10.0000    16.0000    20.0000    -0.0005     0.0005   159.4164   -41.1662     3.1476    31.7001    14.7000     2.0000     1.0000   300.0010     0.000
     14     2.0000    -0.2500    -0.0001    16.7497     26.544     36.000 194311.000     30.000    45.6676   -20.0773   -27.8152   120.0962    -0.1480    -3.0001   -51.4143     0.0000   390.0000     0.0000     1.0000   300.0000   300.0000   -48.0805    53.4294    -1.9790    -1.4485    20.0000    20.0000    10.0000    20.0000    26.0000    10.0000    16.0000    20.0000    -0.0005     0.0005   159.4164   -41.1662     3.1475    31.4497    14.7000     2.0000     1.0000   300.0050     0.000
     15     2.0000    -0.2500    -0.0001    16.5002     26.786     53.000 194311.000     30.000    45.8503   -20.0773   -27.9285   120.0962    -0.1480    -3.0001   -51.1934     0.0000   390.0000     0.0000     1.0000   300.0000   300.0000   -48.2493    53.6735    -1.9790    -1.4485    20.0000    20.0000    10.0000    20.0000    26.0000    10.0000    16.0000    20.0000    -0.0005     0.0005   159.4164   -41.1662     3.1474    31.2002    14.7000     2.0000     1.0000   300.0120     0.000
     16     2.0000    -0.2500    -0.0001    16.2498     26.654     65.000 194311.000     30.000    46.0351   -20.0773   -28.0435   120.0962    -0.1480    -3.0001   -50.9717     0.0000   390.0000     0.0000     1.0000   300.0000   300.0000   -48.4181    53.9220    -1.9790    -1.4485    20.0000    20.0000    10.0000    20.0000    26.0000    10.0000    16.0000    20.0000    -0.0005     0.0005   159.4164   -41.1662     3.1475    30.9498    14.7000     2.0000     1.0000   299.9970     0.000
     17     2.0001    -0.2500    -0.0001    15.9997     26.861     63.000 194311.000     30.000    46.2221   -20.0773   -28.1599   120.0962    -0.1480    -3.0001   -50.7492     0.0000   390.0000     0.0000     1.0000   300.0000   300.0000   -48.5866    54.1714    -1.9790    -1.4485    20.0000    20.0000    10.0000    20.0000    26.0000    10.0000    16.0000    20.0000    -0.0005     0.0005   159.4164   -41.1662     3.1476    30.6997    14.7000     2.0000     1.0000   299.9990     0.000
     18     2.0000    -0.2500    -0.0001    15.7504     26.901     62.000 194311.000     30.000    46.4115   -20.0773   -28.2773   120.0962    -0.1480    -3.0001   -50.5260     0.0000   390.0000     0.0000     1.0000   300.0000   300.0000   -48.7550    54.4166    -1.9790    -1.4485    20.0000    20.0000    10.0000    20.0000    26.0000    10.0000    16.0000    20.0000    -0.0005     0.0005   159.4164   -41.1662     3.1475    30.4504    14.7000     2.0000     1.0000   300.0140     0.000
     19     2.0000    -0.2500    -0.0001    15.4998     26.941     58.000 194311.000     30.000    46.6032   -20.0773   -28.3968   120.0962    -0.1480    -3.0001   -50.3021     0.0000   390.0000     0.0000     1.0000   300.0000   300.0000   -48.9231    54.6635    -1.9790    -1.4485    20.0000    20.0000    10.0000    20.0000    26.0000    10.0000    16.0000    20.0000    -0.0005     0.0005   159.4164   -41.1662     3.1474    30.1998    14.7000     2.0000     1.0000   300.0040     0.000
     20     2.0000    -0.2500    -0.0001    15.2500     26.994     77.000 194311.000     30.000    46.7972   -20.0773   -28.5175   120.0962    -0.1480    -3.0001   -50.0773     0.0000   390.0000     0.0000     1.0000   300.0000   300.0000   -49.0914    54.9139    -1.9790    -1.4485    20.0000    20.0000    10.0000    20.0000    26.0000    10.0000    16.0000    20.0000    -0.0005     0.0005   159.4164   -41.1662     3.1475    29.9500    14.7000     2.0000     1.0000   299.9960     0.000
     21     2.0001    -0.2500    -0.0001    15.0002     27.130     87.000 194311.000     30.000    46.9938   -20.0773   -28.6397   120.0962    -0.1480    -3.0001   -49.8518     0.0000   390.0000     0.0000     1.0000   300.0000   300.0000   -49.2593    55.1643    -1.9790    -1.4485    20.0000    20.0000    10.0000    20.0000    26.0000    10.0000    16.0000    20.0000    -0.0005     0.0005   159.4164   -41.1662     3.1476    29.7002    14.7000     2.0000     1.0000   299.9780     0.000
     22     2.0000    -0.2500    -0.0001    14.7497     26.898     91.000 194311.000     30.000    47.1929   -20.0773   -28.7639   120.0962    -0.1480    -3.0001   -49.6254     0.0000   390.0000     0.0000     1.0000   300.0000   300.0000   -49.4267    55.4125    -1.9790    -1.4485    20.0000    20.0000    10.0000    20.0000    26.0000    10.0000    16.0000    20.0000    -0.0005     0.0005   159.4164   -41.1662     3.1475    29.4497    14.7000     2.0000     1.0000   300.0030     0.000
     23     2.0000    -0.2500    -0.0001    14.5000     26.745     92.000 194311.000     30.000    47.3944   -20.0773   -28.8893   120.0962    -0.1480    -3.0001   -49.3982     0.0000   390.0000     0.0000     1.0000   300.0000   300.0000   -49.5945    55.6629    -1.9790    -1.4485    20.0000    20.0000    10.0000    20.0000    26.0000    10.0000    16.0000    20.0000    -0.0005     0.0005   159.4164   -41.1662     3.1475    29.2000    14.7000     2.0000     1.0000   300.0080     0.000
     24     2.0000    -0.2500    -0.0001    14.2507     26.492    100.000 194311.000     30.000    47.5986   -20.0773   -29.0161   120.0962    -0.1480    -3.0001   -49.1702     0.0000   390.0000     0.0000     1.0000   300.0000   300.0000   -49.7621    55.9147    -1.9790    -1.4485    20.0000    20.0000    10.0000    20.0000    26.0000    10.0000    16.0000    20.0000    -0.0005     0.0005   159.4164   -41.1662     3.1475    28.9508    14.7000     2.0000     1.0000   300.0200     0.000
     25     2.0001    -0.2500    -0.0001    13.9994     25.855     86.000 194311.000     30.000    47.8055   -20.0773   -29.1457   120.0962    -0.1480    -3.0001   -48.9414     0.0000   390.0000     0.0000     1.0000   300.0000   300.0000   -49.9293    56.1698    -1.9790    -1.4485    20.0000    20.0000    10.0000    20.0000    26.0000    10.0000    16.0000    20.0000    -0.0005     0.0005   159.4164   -41.1662     3.1476    28.6994    14.7000     2.0000     1.0000   300.0130     0.000
     26     2.0000    -0.2500    -0.0001    13.7503     25.626     80.000 194311.000     30.000    48.0151   -20.0773   -29.2758   120.0962    -0.1480    -3.0001   -48.7117     0.0000   390.0000     0.0000     1.0000   300.0000   300.0000   -50.0966    56.4206    -1.9790    -1.4485    20.0000    20.0000    10.0000    20.0000    26.0000    10.0000    16.0000    20.0000    -0.0005     0.0005   159.4164   -41.1662     3.1475    28.4503    14.7000     2.0000     1.0000   299.9520     0.000
     27     2.0000    -0.2500    -0.0001    13.5004     25.529     90.000 194311.000     30.000    48.2274   -20.0773   -29.4082   120.0962    -0.1480    -3.0001   -48.4811     0.0000   390.0000     0.0000     1.0000   300.0000   300.0000   -50.2638    56.6714    -1.9790    -1.4485    20.0000    20.0000    10.0000    20.0000    26.0000    10.0000    16.0000    20.0000    -0.0005     0.0005   159.4164   -41.1662     3.1474    28.2004    14.7000     2.0000     1.0000   300.0130     0.000
     28     2.0000    -0.2500    -0.0001    13.2496     25.541     96.000 194311.000     30.000    48.4427   -20.0773   -29.5428   120.0962    -0.1480    -3.0001   -48.2497     0.0000   390.0000     0.0000     1.0000   300.0000   300.0000   -50.4306    56.9281    -1.9790    -1.4485    20.0000    20.0000    10.0000    20.0000    26.0000    10.0000    16.0000    20.0000    -0.0005     0.0005   159.4164   -41.1662     3.1475    27.9496    14.7000     2.0000     1.0000   300.0050     0.000
     29     2.0001    -0.2500    -0.0001    13.0000     25.686     71.000 194311.000     30.000    48.6608   -20.0773   -29.6786   120.0962    -0.1480    -3.0001   -48.0174     0.0000   390.0000     0.0000     1.0000   300.0000   300.0000   -50.5973    57.1851    -1.9790    -1.4485    20.0000    20.0000    10.0000    20.0000    26.0000    10.0000    16.0000    20.0000    -0.0005     0.0005   159.4164   -41.1662     3.1476    27.7000    14.7000     2.0000     1.0000   299.9980     0.000
     30     2.0000    -0.2500    -0.0001    12.7500     25.852     51.000 194311.000     30.000    48.8819   -20.0773   -29.8166   120.0962    -0.1480    -3.0001   -47.7842     0.0000   390.0000     0.0000     1.0000   300.0000   300.0000   -50.7643    57.4395    -1.9790    -1.4485    20.0000    20.0000    10.0000    20.0000    26.0000    10.0000    16.0000    20.0000    -0.0005     0.0005   159.4164   -41.1662     3.1475    27.4500    14.7000     2.0000     1.0000   299.9990     0.000
     31     2.0000    -0.2500    -0.0001    12.4999     26.235     62.000 194311.000     30.000    49.1060   -20.0773   -29.9566   120.0962    -0.1480    -3.0001   -47.5501     0.0000   390.0000     0.0000     1.0000   300.0000   300.0000   -50.9305    57.6952    -1.9790    -1.4485    20.0000    20.0000    10.0000    20.0000    26.0000    10.0000    16.0000    20.0000    -0.0005     0.0005   159.4164   -41.1662     3.1474    27.1999    14.7000     2.0000     1.0000   300.0010     0.000
     32     2.0001    -0.2500    -0.0001    12.2504     26.631     54.000 194311.000     30.000    49.3332   -20.0773   -30.0982   120.0962    -0.1480    -3.0001   -47.3151     0.0000   390.0000     0.0000     1.0000   300.0000   300.0000   -51.0970    57.9544    -1.9790    -1.4485    20.0000    20.0000    10.0000    20.0000    26.0000    10.0000    16.0000    20.0000    -0.0005     0.0005   159.4164   -41.1662     3.1475    26.9504    14.7000     2.0000     1.0000   299.9980     0.000
     33     2.0000    -0.2500    -0.0001    11.9996     26.947     56.000 194311.000     30.000    49.5636   -20.0773   -30.2426   120.0962    -0.1480    -3.0001   -47.0791     0.0000   390.0000     0.0000     1.0000   300.0000   300.0000   -51.2634    58.2127    -1.9790    -1.4485    20.0000    20.0000    10.0000    20.0000    26.0000    10.0000    16.0000    20.0000    -0.0005     0.0005   159.4164   -41.1662     3.1475    26.6996    14.7000     2.0000     1.0000   299.9930     0.000
     34     2.0000    -0.2500    -0.0001    11.7500     26.893     41.000 194311.000     30.000    49.7973   -20.0773   -30.3883   120.0962    -0.1480    -3.0001   -46.8422     0.0000   390.0000     0.0000     1.0000   300.0000   300.0000   -51.4293    58.4708    -1.9790    -1.4485    20.0000    20.0000    10.0000    20.0000    26.0000    10.0000    16.0000    20.0000    -0.0005     0.0005   159.4164   -41.1662     3.1474    26.4500    14.7000     2.0000     1.0000   299.9970     0.000
     35     2.0000    -0.2500    -0.0001    11.5002     26.857     41.000 194311.000     30.000    50.0343   -20.0773   -30.5364   120.0962    -0.1480    -3.0001   -46.6044     0.0000   390.0000     0.0000     1.0000   300.0000   300.0000   -51.5959    58.7322    -1.9790    -1.4485    20.0000    20.0000    10.0000    20.0000    26.0000    10.0000    16.0000    20.0000    -0.0005     0.0005   159.4164   -41.1662     3.1475    26.2002    14.7000     2.0000     1.0000   300.0210     0.000
     36     2.0001    -0.2500    -0.0001    11.2503     26.584     49.000 194311.000     30.000    50.2748   -20.0773   -30.6867   120.0962    -0.1480    -3.0001   -46.3655     0.0000   390.0000     0.0000     1.0000   300.0000   300.0000   -51.7615    58.9956    -1.9790    -1.4485    20.0000    20.0000    10.0000    20.0000    26.0000    10.0000    16.0000    20.0000    -0.0005     0.0005   159.4164   -41.1662     3.1476    25.9503    14.7000     2.0000     1.0000   300.0270     0.000
     37     2.0000    -0.2500    -0.0001    11.0000     26.516     41.000 194311.000     30.000    50.5187   -20.0773   -30.8395   120.0962    -0.1480    -3.0001   -46.1257     0.0000   390.0000     0.0000     1.0000   300.0000   300.0000   -51.9271    59.2558    -1.9790    -1.4485    20.0000    20.0000    10.0000    20.0000    26.0000    10.0000    16.0000    20.0000    -0.0005     0.0005   159.4164   -41.1662     3.1475    25.7000    14.7000     2.0000     1.0000   299.9980     0.000
