# scan = 148
# date = 9/7/2024
# time = 5:44:55 PM
# proposal = 32905
# experiment = Effects of electric field on phonon dispersion and lifetimes of poled PMN-30PT
# experiment_number = 812
# command = scan h 2.5 k 0.5 l 0 e 15 0.5 0.25 preset mcu 30
# builtin_command = scan h 2.5 k 0.5 l 0 e 15 0.5 0.25 preset mcu 30
# users = George Yumnam, Michael Manley, Puspa Upreti, Raphael Hermann, SHAOFEI WANG
# local_contact = Songxue Chi
# scan_title = (2.5,0.5,0) M point scan at E 440 V
# monochromator = PG002
# analyzer = Pg002
# sense = -+-
# collimation = 48-40-40-120
# samplename = PMN-30PT
# sampletype = crystal
# samplemosaic = 30.000000
# latticeconstants = 4.023634,4.023634,4.023634,90.000000,90.000000,90.000000
# ubmatrix = -0.008055,-0.248252,-0.008588,-0.248328,0.007840,0.006285,-0.006007,0.008785,-0.248304
# mode = 0
# plane_normal = 0.034555,-0.025290,0.999083
# ubconf = UB04Sep2024_115522AM.ini
# preset_type = normal
# preset_channel = mcu
# preset_value = 30.000000
# def_x = e
# def_y = detector
# col_headers =
#   Pt.          h          k          l          e       time   detector    monitor        mcu focal_length         m1         m2   mcrystal       marc     mtrans     mfocus       ampl         dc       freq     output       temp     temp_2         s1         s2        sgl        sgu        bbb        bbl        bbr        bbt        bab        bal        bar        bat        stl        stu         a1         a2          q         ei         ef   ampl_out output_state        vti     sample
      1     2.5000     0.5000    -0.0001    15.0018     27.514     32.000 194311.000     30.000    46.9938   -20.0773   -28.6390   120.0962    -0.1480    -3.0001   -49.8518     0.0000   440.0000     0.0000     1.0000   300.0000   300.0000   -26.8411    73.9456    -1.9790    -1.4485    20.0000    20.0000    10.0000    20.0000    26.0000    10.0000    16.0000    20.0000    -0.0005     0.0005   159.4164   -41.1662     3.9813    29.7018    14.7000     2.0000     1.0000   300.0060     0.000
      2     2.5000     0.5000    -0.0001    14.7495     27.038     24.000 194311.000     30.000    47.1929   -20.0773   -28.7640   120.0962    -0.1480    -3.0001   -49.6254     0.0000   440.0000     0.0000     1.0000   300.0000   300.0000   -26.9106    74.2344    -1.9790    -1.4485    20.0000    20.0000    10.0000    20.0000    26.0000    10.0000    16.0000    20.0000    -0.0005     0.0005   159.4164   -41.1662     3.9812    29.4495    14.7000     2.0000     1.0000   300.0150     0.000
      3     2.5000     0.5000    -0.0001    14.4998     26.736     26.000 194311.000     30.000    47.3944   -20.0773   -28.8894   120.0962    -0.1480    -3.0001   -49.3982     0.0000   440.0000     0.0000     1.0000   300.0000   300.0000   -26.9791    74.5255    -1.9790    -1.4485    20.0000    20.0000    10.0000    20.0000    26.0000    10.0000    16.0000    20.0000    -0.0005     0.0005   159.4164   -41.1662     3.9813    29.1998    14.7000     2.0000     1.0000   300.0290     0.000
      4     2.5000     0.5000    -0.0001    14.2506     26.317     29.000 194311.000     30.000    47.5986   -20.0773   -29.0161   120.0962    -0.1480    -3.0001   -49.1702     0.0000   440.0000     0.0000     1.0000   300.0000   300.0000   -27.0461    74.8161    -1.9790    -1.4485    20.0000    20.0000    10.0000    20.0000    26.0000    10.0000    16.0000    20.0000    -0.0005     0.0005   159.4164   -41.1662     3.9813    28.9507    14.7000     2.0000     1.0000   300.0250     0.000
      5     2.5000     0.5000    -0.0001    13.9994     25.924     29.000 194311.000     30.000    47.8055   -20.0773   -29.1456   120.0962    -0.1480    -3.0001   -48.9414     0.0000   440.0000     0.0000     1.0000   300.0000   300.0000   -27.1135    75.1107    -1.9790    -1.4485    20.0000    20.0000    10.0000    20.0000    26.0000    10.0000    16.0000    20.0000    -0.0005     0.0005   159.4164   -41.1662     3.9813    28.6995    14.7000     2.0000     1.0000   300.0210     0.000
      6     2.5001     0.5000    -0.0001    13.7502     25.576     28.000 194311.000     30.000    48.0151   -20.0773   -29.2759   120.0962    -0.1480    -3.0001   -48.7117     0.0000   440.0000     0.0000     1.0000   300.0000   300.0000   -27.1791    75.4090    -1.9790    -1.4485    20.0000    20.0000    10.0000    20.0000    26.0000    10.0000    16.0000    20.0000    -0.0005     0.0005   159.4164   -41.1662     3.9814    28.4502    14.7000     2.0000     1.0000   300.0030     0.000
      7     2.5000     0.5000    -0.0001    13.5003     25.393     34.000 194311.000     30.000    48.2274   -20.0773   -29.4082   120.0962    -0.1480    -3.0001   -48.4811     0.0000   440.0000     0.0000     1.0000   300.0000   300.0000   -27.2441    75.7025    -1.9790    -1.4485    20.0000    20.0000    10.0000    20.0000    26.0000    10.0000    16.0000    20.0000    -0.0005     0.0005   159.4164   -41.1662     3.9813    28.2003    14.7000     2.0000     1.0000   299.9340     0.000
      8     2.5000     0.5000    -0.0001    13.2496     25.303     38.000 194311.000     30.000    48.4427   -20.0773   -29.5428   120.0962    -0.1480    -3.0001   -48.2497     0.0000   440.0000     0.0000     1.0000   300.0000   300.0000   -27.3086    76.0023    -1.9790    -1.4485    20.0000    20.0000    10.0000    20.0000    26.0000    10.0000    16.0000    20.0000    -0.0005     0.0005   159.4164   -41.1662     3.9812    27.9496    14.7000     2.0000     1.0000   299.9960     0.000
      9     2.5000     0.5000    -0.0001    13.0000     25.561     30.000 194311.000     30.000    48.6608   -20.0773   -29.6786   120.0962    -0.1480    -3.0001   -48.0174     0.0000   440.0000     0.0000     1.0000   300.0000   300.0000   -27.3719    76.3037    -1.9790    -1.4485    20.0000    20.0000    10.0000    20.0000    26.0000    10.0000    16.0000    20.0000    -0.0005     0.0005   159.4164   -41.1662     3.9813    27.7000    14.7000     2.0000     1.0000   299.9870     0.000
     10     2.5001     0.5000    -0.0001    12.7500     25.977     35.000 194311.000     30.000    48.8819   -20.0773   -29.8166   120.0962    -0.1480    -3.0001   -47.7842     0.0000   440.0000     0.0000     1.0000   300.0000   300.0000   -27.4346    76.6088    -1.9790    -1.4485    20.0000    20.0000    10.0000    20.0000    26.0000    10.0000    16.0000    20.0000    -0.0005     0.0005   159.4164   -41.1662     3.9813    27.4500    14.7000     2.0000     1.0000   299.9930     0.000
     11     2.5000     0.5000    -0.0001    12.4998     26.350     29.000 194311.000     30.000    49.1060   -20.0773   -29.9566   120.0962    -0.1480    -3.0001   -47.5501     0.0000   440.0000     0.0000     1.0000   300.0000   300.0000   -27.4961    76.9127    -1.9790    -1.4485    20.0000    20.0000    10.0000    20.0000    26.0000    10.0000    16.0000    20.0000    -0.0005     0.0005   159.4164   -41.1662     3.9813    27.1998    14.7000     2.0000     1.0000   300.0010     0.000
     12     2.5000     0.5000    -0.0001    12.2505     26.590     25.000 194311.000     30.000    49.3332   -20.0773   -30.0981   120.0962    -0.1480    -3.0001   -47.3151     0.0000   440.0000     0.0000     1.0000   300.0000   300.0000   -27.5571    77.2194    -1.9790    -1.4485    20.0000    20.0000    10.0000    20.0000    26.0000    10.0000    16.0000    20.0000    -0.0005     0.0005   159.4164   -41.1662     3.9813    26.9505    14.7000     2.0000     1.0000   300.0060     0.000
     13     2.5000     0.5000    -0.0001    11.9996     26.898     33.000 194311.000     30.000    49.5636   -20.0773   -30.2426   120.0962    -0.1480    -3.0001   -47.0791     0.0000   440.0000     0.0000     1.0000   300.0000   300.0000   -27.6167    77.5300    -1.9790    -1.4485    20.0000    20.0000    10.0000    20.0000    26.0000    10.0000    16.0000    20.0000    -0.0005     0.0005   159.4164   -41.1662     3.9813    26.6996    14.7000     2.0000     1.0000   300.0040     0.000
     14     2.5000     0.5000    -0.0001    11.7500     27.004     41.000 194311.000     30.000    49.7973   -20.0773   -30.3883   120.0962    -0.1480    -3.0001   -46.8422     0.0000   440.0000     0.0000     1.0000   300.0000   300.0000   -27.6758    77.8403    -1.9790    -1.4485    20.0000    20.0000    10.0000    20.0000    26.0000    10.0000    16.0000    20.0000    -0.0005     0.0005   159.4164   -41.1662     3.9812    26.4500    14.7000     2.0000     1.0000   299.9910     0.000
     15     2.5001     0.5000    -0.0001    11.5002     26.897     39.000 194311.000     30.000    50.0343   -20.0773   -30.5364   120.0962    -0.1480    -3.0001   -46.6044     0.0000   440.0000     0.0000     1.0000   300.0000   300.0000   -27.7336    78.1572    -1.9790    -1.4485    20.0000    20.0000    10.0000    20.0000    26.0000    10.0000    16.0000    20.0000    -0.0005     0.0005   159.4164   -41.1662     3.9813    26.2002    14.7000     2.0000     1.0000   300.0060     0.000
     16     2.5000     0.5000    -0.0001    11.2501     26.683     48.000 194311.000     30.000    50.2748   -20.0773   -30.6868   120.0962    -0.1480    -3.0001   -46.3655     0.0000   440.0000     0.0000     1.0000   300.0000   300.0000   -27.7901    78.4712    -1.9790    -1.4485    20.0000    20.0000    10.0000    20.0000    26.0000    10.0000    16.0000    20.0000    -0.0005     0.0005   159.4164   -41.1662     3.9812    25.9501    14.7000     2.0000     1.0000   300.0040     0.000
     17     2.5001     0.5000    -0.0001    11.0000     26.424     37.000 194311.000     30.000    50.5187   -20.0773   -30.8394   120.0962    -0.1480    -3.0001   -46.1257     0.0000   440.0000     0.0000     1.0000   300.0000   300.0000   -27.8459    78.7952    -1.9790    -1.4485    20.0000    20.0000    10.0000    20.0000    26.0000    10.0000    16.0000    20.0000    -0.0005     0.0005   159.4164   -41.1662     3.9814    25.7001    14.7000     2.0000     1.0000   300.0030     0.000
     18     2.5000     0.5000    -0.0001    10.7500     26.377     51.000 194311.000     30.000    50.7662   -20.0773   -30.9943   120.0962    -0.1480    -3.0001   -45.8849     0.0000   440.0000     0.0000     1.0000   300.0000   300.0000   -27.9009    79.1137    -1.9790    -1.4485    20.0000    20.0000    10.0000    20.0000    26.0000    10.0000    16.0000    20.0000    -0.0005     0.0005   159.4164   -41.1662     3.9813    25.4501    14.7000     2.0000     1.0000   300.0200     0.000
     19     2.5000     0.5000    -0.0001    10.5002     26.126     59.000 194311.000     30.000    51.0174   -20.0773   -31.1515   120.0962    -0.1480    -3.0001   -45.6430     0.0000   440.0000     0.0000     1.0000   300.0000   300.0000   -27.9545    79.4355    -1.9790    -1.4485    20.0000    20.0000    10.0000    20.0000    26.0000    10.0000    16.0000    20.0000    -0.0005     0.0005   159.4164   -41.1662     3.9812    25.2002    14.7000     2.0000     1.0000   299.9510     0.000
     20     2.5001     0.5000    -0.0001    10.2503     26.356     50.000 194311.000     30.000    51.2724   -20.0773   -31.3111   120.0962    -0.1480    -3.0001   -45.4002     0.0000   440.0000     0.0000     1.0000   300.0000   300.0000   -28.0063    79.7662    -1.9790    -1.4485    20.0000    20.0000    10.0000    20.0000    26.0000    10.0000    16.0000    20.0000    -0.0005     0.0005   159.4164   -41.1662     3.9813    24.9503    14.7000     2.0000     1.0000   300.0100     0.000
     21     2.5000     0.5000    -0.0001     9.9998     26.476     55.000 194311.000     30.000    51.5312   -20.0773   -31.4735   120.0962    -0.1480    -3.0001   -45.1562     0.0000   440.0000     0.0000     1.0000   300.0000   300.0000   -28.0583    80.0934    -1.9790    -1.4485    20.0000    20.0000    10.0000    20.0000    26.0000    10.0000    16.0000    20.0000    -0.0005     0.0005   159.4164   -41.1662     3.9812    24.6998    14.7000     2.0000     1.0000   300.0360     0.000
     22     2.5000     0.5000    -0.0001     9.7499     26.839     62.000 194311.000     30.000    51.7940   -20.0773   -31.6382   120.0962    -0.1480    -3.0001   -44.9112     0.0000   440.0000     0.0000     1.0000   300.0000   300.0000   -28.1077    80.4267    -1.9790    -1.4485    20.0000    20.0000    10.0000    20.0000    26.0000    10.0000    16.0000    20.0000    -0.0005     0.0005   159.4164   -41.1662     3.9813    24.4499    14.7000     2.0000     1.0000   300.0020     0.000
     23     2.5001     0.5000    -0.0001     9.4998     27.268     64.000 194311.000     30.000    52.0609   -20.0773   -31.8055   120.0962    -0.1480    -3.0001   -44.6652     0.0000   440.0000     0.0000     1.0000   300.0000   300.0000   -28.1569    80.7635    -1.9790    -1.4485    20.0000    20.0000    10.0000    20.0000    26.0000    10.0000    16.0000    20.0000    -0.0005     0.0005   159.4164   -41.1662     3.9813    24.1998    14.7000     2.0000     1.0000   300.0160     0.000
     24     2.5000     0.5000    -0.0001     9.2503     27.424     69.000 194311.000     30.000    52.3319   -20.0773   -31.9752   120.0962    -0.1480    -3.0001   -44.4180     0.0000   440.0000     0.0000     1.0000   300.0000   300.0000   -28.2044    81.0993    -1.9790    -1.4485    20.0000    20.0000    10.0000    20.0000    26.0000    10.0000    16.0000    20.0000    -0.0005     0.0005   159.4164   -41.1662     3.9813    23.9503    14.7000     2.0000     1.0000   299.9950     0.000
     25     2.5000     0.5000    -0.0001     9.0000     27.163     61.000 194311.000     30.000    52.6071   -20.0773   -32.1481   120.0962    -0.1480    -3.0001   -44.1697     0.0000   440.0000     0.0000     1.0000   300.0000   300.0000   -28.2503    81.4389    -1.9790    -1.4485    20.0000    20.0000    10.0000    20.0000    26.0000    10.0000    16.0000    20.0000    -0.0005     0.0005   159.4164   -41.1662     3.9812    23.7000    14.7000     2.0000     1.0000   300.0040     0.000
     26     2.5001     0.5000    -0.0001     8.7500     26.711     77.000 194311.000     30.000    52.8868   -20.0773   -32.3237   120.0962    -0.1480    -3.0001   -43.9203     0.0000   440.0000     0.0000     1.0000   300.0000   300.0000   -28.2952    81.7885    -1.9790    -1.4485    20.0000    20.0000    10.0000    20.0000    26.0000    10.0000    16.0000    20.0000    -0.0005     0.0005   159.4164   -41.1662     3.9814    23.4500    14.7000     2.0000     1.0000   300.0120     0.000
     27     2.5000     0.5000    -0.0001     8.5000     25.920     77.000 194311.000     30.000    53.1710   -20.0773   -32.5022   120.0962    -0.1480    -3.0001   -43.6697     0.0000   440.0000     0.0000     1.0000   300.0000   300.0000   -28.3388    82.1322    -1.9790    -1.4485    20.0000    20.0000    10.0000    20.0000    26.0000    10.0000    16.0000    20.0000    -0.0005     0.0005   159.4164   -41.1662     3.9813    23.2000    14.7000     2.0000     1.0000   300.0030     0.000
     28     2.5000     0.5000    -0.0001     8.2499     25.039     73.000 194311.000     30.000    53.4598   -20.0773   -32.6837   120.0962    -0.1480    -3.0001   -43.4180     0.0000   440.0000     0.0000     1.0000   300.0000   300.0000   -28.3803    82.4812    -1.9790    -1.4485    20.0000    20.0000    10.0000    20.0000    26.0000    10.0000    16.0000    20.0000    -0.0005     0.0005   159.4164   -41.1662     3.9812    22.9499    14.7000     2.0000     1.0000   300.0000     0.000
     29     2.5000     0.5000    -0.0001     8.0000     24.454     69.000 194311.000     30.000    53.7534   -20.0773   -32.8682   120.0962    -0.1480    -3.0001   -43.1651     0.0000   440.0000     0.0000     1.0000   300.0000   300.0000   -28.4210    82.8349    -1.9790    -1.4485    20.0000    20.0000    10.0000    20.0000    26.0000    10.0000    16.0000    20.0000    -0.0005     0.0005   159.4164   -41.1662     3.9812    22.7000    14.7000     2.0000     1.0000   300.0070     0.000
     30     2.5000     0.5000    -0.0001     7.7501     24.076     76.000 194311.000     30.000    54.0519   -20.0773   -33.0559   120.0962    -0.1480    -3.0001   -42.9109     0.0000   440.0000     0.0000     1.0000   300.0000   300.0000   -28.4597    83.1944    -1.9790    -1.4485    20.0000    20.0000    10.0000    20.0000    26.0000    10.0000    16.0000    20.0000    -0.0005     0.0005   159.4164   -41.1662     3.9813    22.4501    14.7000     2.0000     1.0000   300.0010     0.000
     31     2.5000     0.5000    -0.0001     7.4998     23.832     77.000 194311.000     30.000    54.3554   -20.0773   -33.2471   120.0962    -0.1480    -3.0001   -42.6556     0.0000   440.0000     0.0000     1.0000   300.0000   300.0000   -28.4971    83.5542    -1.9790    -1.4485    20.0000    20.0000    10.0000    20.0000    26.0000    10.0000    16.0000    20.0000    -0.0005     0.0005   159.4164   -41.1662     3.9812    22.1998    14.7000     2.0000     1.0000   299.9960     0.000
     32     2.5000     0.5000    -0.0001     7.2503     23.824     70.000 194311.000     30.000    54.6640   -20.0773   -33.4410   120.0962    -0.1480    -3.0001   -42.3989     0.0000   440.0000     0.0000     1.0000   300.0000   300.0000   -28.5326    83.9192    -1.9790    -1.4485    20.0000    20.0000    10.0000    20.0000    26.0000    10.0000    16.0000    20.0000    -0.0005     0.0005   159.4164   -41.1662     3.9813    21.9503    14.7000     2.0000     1.0000   299.9840     0.000
     33     2.5000     0.5000    -0.0001     6.9997     23.684     71.000 194311.000     30.000    54.9780   -20.0773   -33.6393   120.0962    -0.1480    -3.0001   -42.1410     0.0000   440.0000     0.0000     1.0000   300.0000   300.0000   -28.5665    84.2857    -1.9790    -1.4485    20.0000    20.0000    10.0000    20.0000    26.0000    10.0000    16.0000    20.0000    -0.0005     0.0005   159.4164   -41.1662     3.9812    21.6997    14.7000     2.0000     1.0000   299.9380     0.000
     34     2.5000     0.5000    -0.0001     6.7503     23.809     76.000 194311.000     30.000    55.2975   -20.0773   -33.8402   120.0962    -0.1480    -3.0001   -41.8818     0.0000   440.0000     0.0000     1.0000   300.0000   300.0000   -28.5991    84.6564    -1.9790    -1.4485    20.0000    20.0000    10.0000    20.0000    26.0000    10.0000    16.0000    20.0000    -0.0005     0.0005   159.4164   -41.1662     3.9812    21.4503    14.7000     2.0000     1.0000   300.0150     0.000
     35     2.5000     0.5000    -0.0001     6.4999     24.084     66.000 194311.000     30.000    55.6225   -20.0773   -34.0455   120.0962    -0.1480    -3.0001   -41.6214     0.0000   440.0000     0.0000     1.0000   300.0000   300.0000   -28.6289    85.0338    -1.9790    -1.4485    20.0000    20.0000    10.0000    20.0000    26.0000    10.0000    16.0000    20.0000    -0.0005     0.0005   159.4164   -41.1662     3.9812    21.1999    14.7000     2.0000     1.0000   300.0020     0.000
     36     2.5000     0.5000    -0.0001     6.2501     24.406     86.000 194311.000     30.000    55.9535   -20.0773   -34.2540   120.0962    -0.1480    -3.0001   -41.3595     0.0000   440.0000     0.0000     1.0000   300.0000   300.0000   -28.6573    85.4143    -1.9790    -1.4485    20.0000    20.0000    10.0000    20.0000    26.0000    10.0000    16.0000    20.0000    -0.0005     0.0005   159.4164   -41.1662     3.9813    20.9501    14.7000     2.0000     1.0000   300.0200     0.000
     37     2.5001     0.5000    -0.0001     6.0000     24.653     78.000 194311.000     30.000    56.2903   -20.0773   -34.4668   120.0962    -0.1480    -3.0001   -41.0963     0.0000   440.0000     0.0000     1.0000   300.0000   300.0000   -28.6840    85.8013    -1.9790    -1.4485    20.0000    20.0000    10.0000    20.0000    26.0000    10.0000    16.0000    20.0000    -0.0005     0.0005   159.4164   -41.1662     3.9814    20.7000    14.7000     2.0000     1.0000   300.0030     0.000
