# scan = 154
# date = 9/7/2024
# time = 10:13:31 PM
# proposal = 32905
# experiment = Effects of electric field on phonon dispersion and lifetimes of poled PMN-30PT
# experiment_number = 812
# command = scan h 2 k 0 l 0 e 20 0.5 0.25 preset mcu 30
# builtin_command = scan h 2 k 0 l 0 e 20 0.5 0.25 preset mcu 30
# users = George Yumnam, Michael Manley, Puspa Upreti, Raphael Hermann, SHAOFEI WANG
# local_contact = Songxue Chi
# scan_title = (2,0,0) G to X transverse mode scan at 390V after volatge breaks
# monochromator = PG002
# analyzer = Pg002
# sense = -+-
# collimation = 48-40-40-120
# samplename = PMN-30PT
# sampletype = crystal
# samplemosaic = 30.000000
# latticeconstants = 4.023634,4.023634,4.023634,90.000000,90.000000,90.000000
# ubmatrix = -0.008055,-0.248252,-0.008588,-0.248328,0.007840,0.006285,-0.006007,0.008785,-0.248304
# mode = 0
# plane_normal = 0.034555,-0.025290,0.999083
# ubconf = UB04Sep2024_115522AM.ini
# preset_type = normal
# preset_channel = mcu
# preset_value = 30.000000
# def_x = e
# def_y = detector
# col_headers =
#   Pt.          h          k          l          e       time   detector    monitor        mcu focal_length         m1         m2   mcrystal       marc     mtrans     mfocus       ampl         dc       freq     output       temp     temp_2         s1         s2        sgl        sgu        bbb        bbl        bbr        bbt        bab        bal        bar        bat        stl        stu         a1         a2          q         ei         ef   ampl_out output_state        vti     sample
      1     2.0000    -0.0001    -0.0001    20.0028     25.173     35.000 194311.000     30.000    43.4765   -20.0773   -26.4545   120.0962    -0.1480    -3.0001   -54.2224     0.0000   390.0000     0.0000     1.0000   300.0000   300.0000   -38.7475    49.7428    -1.9790    -1.4485    20.0000    20.0000    10.0000    20.0000    26.0000    10.0000    16.0000    20.0000    -0.0005     0.0005   159.4164   -41.1662     3.1232    34.7028    14.7000     2.0000     1.0000   300.0140     0.000
      2     2.0000     0.0000    -0.0001    19.7498     25.125     34.000 194311.000     30.000    43.6339   -20.0773   -26.5533   120.0962    -0.1480    -3.0001   -54.0105     0.0000   390.0000     0.0000     1.0000   300.0000   300.0000   -38.9224    49.9875    -1.9790    -1.4485    20.0000    20.0000    10.0000    20.0000    26.0000    10.0000    16.0000    20.0000    -0.0005     0.0005   159.4164   -41.1662     3.1232    34.4498    14.7000     2.0000     1.0000   300.0260     0.000
      3     2.0000     0.0000    -0.0001    19.4997     25.184     19.000 194311.000     30.000    43.7931   -20.0773   -26.6520   120.0962    -0.1480    -3.0001   -53.7978     0.0000   390.0000     0.0000     1.0000   300.0000   300.0000   -39.0970    50.2269    -1.9790    -1.4485    20.0000    20.0000    10.0000    20.0000    26.0000    10.0000    16.0000    20.0000    -0.0005     0.0005   159.4164   -41.1662     3.1231    34.1997    14.7000     2.0000     1.0000   299.9280     0.000
      4     2.0000    -0.0000    -0.0001    19.2501     25.272     32.000 194311.000     30.000    43.9541   -20.0773   -26.7516   120.0962    -0.1480    -3.0001   -53.5845     0.0000   390.0000     0.0000     1.0000   300.0000   300.0000   -39.2711    50.4690    -1.9790    -1.4485    20.0000    20.0000    10.0000    20.0000    26.0000    10.0000    16.0000    20.0000    -0.0005     0.0005   159.4164   -41.1662     3.1232    33.9501    14.7000     2.0000     1.0000   299.9790     0.000
      5     2.0001    -0.0000    -0.0001    19.0004     25.338     26.000 194311.000     30.000    44.1168   -20.0773   -26.8523   120.0962    -0.1480    -3.0001   -53.3706     0.0000   390.0000     0.0000     1.0000   300.0000   300.0000   -39.4449    50.7123    -1.9790    -1.4485    20.0000    20.0000    10.0000    20.0000    26.0000    10.0000    16.0000    20.0000    -0.0005     0.0005   159.4164   -41.1662     3.1232    33.7005    14.7000     2.0000     1.0000   299.9870     0.000
      6     2.0000     0.0000    -0.0001    18.7494     25.557     29.000 194311.000     30.000    44.2813   -20.0773   -26.9548   120.0962    -0.1480    -3.0001   -53.1560     0.0000   390.0000     0.0000     1.0000   300.0000   300.0000   -39.6191    50.9540    -1.9790    -1.4485    20.0000    20.0000    10.0000    20.0000    26.0000    10.0000    16.0000    20.0000    -0.0005     0.0005   159.4164   -41.1662     3.1232    33.4494    14.7000     2.0000     1.0000   299.9800     0.000
      7     2.0001     0.0000    -0.0001    18.5001     25.666     36.000 194311.000     30.000    44.4478   -20.0773   -27.0577   120.0962    -0.1480    -3.0001   -52.9407     0.0000   390.0000     0.0000     1.0000   300.0000   300.0000   -39.7923    51.1968    -1.9790    -1.4485    20.0000    20.0000    10.0000    20.0000    26.0000    10.0000    16.0000    20.0000    -0.0005     0.0005   159.4164   -41.1662     3.1232    33.2001    14.7000     2.0000     1.0000   300.0000     0.000
      8     2.0000     0.0000    -0.0001    18.2502     25.870     40.000 194311.000     30.000    44.6161   -20.0773   -27.1621   120.0962    -0.1480    -3.0001   -52.7248     0.0000   390.0000     0.0000     1.0000   300.0000   300.0000   -39.9656    51.4387    -1.9790    -1.4485    20.0000    20.0000    10.0000    20.0000    26.0000    10.0000    16.0000    20.0000    -0.0005     0.0005   159.4164   -41.1662     3.1232    32.9502    14.7000     2.0000     1.0000   299.9790     0.000
      9     2.0000    -0.0000    -0.0001    17.9999     26.067     37.000 194311.000     30.000    44.7863   -20.0773   -27.2678   120.0962    -0.1480    -3.0001   -52.5081     0.0000   390.0000     0.0000     1.0000   300.0000   300.0000   -40.1391    51.6808    -1.9790    -1.4485    20.0000    20.0000    10.0000    20.0000    26.0000    10.0000    16.0000    20.0000    -0.0005     0.0005   159.4164   -41.1662     3.1231    32.7000    14.7000     2.0000     1.0000   299.9970     0.000
     10     2.0001    -0.0000    -0.0001    17.7505     26.178     28.000 194311.000     30.000    44.9585   -20.0773   -27.3745   120.0962    -0.1480    -3.0001   -52.2908     0.0000   390.0000     0.0000     1.0000   300.0000   300.0000   -40.3120    51.9257    -1.9790    -1.4485    20.0000    20.0000    10.0000    20.0000    26.0000    10.0000    16.0000    20.0000    -0.0005     0.0005   159.4164   -41.1662     3.1232    32.4505    14.7000     2.0000     1.0000   299.9250     0.000
     11     2.0001     0.0000    -0.0001    17.4997     26.283     25.000 194311.000     30.000    45.1326   -20.0773   -27.4829   120.0962    -0.1480    -3.0001   -52.0728     0.0000   390.0000     0.0000     1.0000   300.0000   300.0000   -40.4846    52.1712    -1.9790    -1.4485    20.0000    20.0000    10.0000    20.0000    26.0000    10.0000    16.0000    20.0000    -0.0005     0.0005   159.4164   -41.1662     3.1233    32.1997    14.7000     2.0000     1.0000   299.9740     0.000
     12     2.0000     0.0000    -0.0001    17.2498     26.393     28.000 194311.000     30.000    45.3089   -20.0773   -27.5924   120.0962    -0.1480    -3.0001   -51.8540     0.0000   390.0000     0.0000     1.0000   300.0000   300.0000   -40.6575    52.4129    -1.9790    -1.4485    20.0000    20.0000    10.0000    20.0000    26.0000    10.0000    16.0000    20.0000    -0.0005     0.0005   159.4164   -41.1662     3.1232    31.9498    14.7000     2.0000     1.0000   299.9780     0.000
     13     2.0001    -0.0000    -0.0001    17.0001     26.600     23.000 194311.000     30.000    45.4872   -20.0773   -27.7029   120.0962    -0.1480    -3.0001   -51.6345     0.0000   390.0000     0.0000     1.0000   300.0000   300.0000   -40.8300    52.6588    -1.9790    -1.4485    20.0000    20.0000    10.0000    20.0000    26.0000    10.0000    16.0000    20.0000    -0.0005     0.0005   159.4164   -41.1662     3.1232    31.7001    14.7000     2.0000     1.0000   299.9930     0.000
     14     2.0000     0.0000    -0.0001    16.7497     26.568     22.000 194311.000     30.000    45.6676   -20.0773   -27.8152   120.0962    -0.1480    -3.0001   -51.4143     0.0000   390.0000     0.0000     1.0000   300.0000   300.0000   -41.0021    52.9027    -1.9790    -1.4485    20.0000    20.0000    10.0000    20.0000    26.0000    10.0000    16.0000    20.0000    -0.0005     0.0005   159.4164   -41.1662     3.1232    31.4497    14.7000     2.0000     1.0000   299.9970     0.000
     15     2.0000    -0.0000    -0.0001    16.5002     26.692     18.000 194311.000     30.000    45.8503   -20.0773   -27.9285   120.0962    -0.1480    -3.0001   -51.1934     0.0000   390.0000     0.0000     1.0000   300.0000   300.0000   -41.1744    53.1485    -1.9790    -1.4485    20.0000    20.0000    10.0000    20.0000    26.0000    10.0000    16.0000    20.0000    -0.0005     0.0005   159.4164   -41.1662     3.1232    31.2002    14.7000     2.0000     1.0000   300.0050     0.000
     16     2.0001     0.0000    -0.0001    16.2497     26.670     33.000 194311.000     30.000    46.0351   -20.0773   -28.0436   120.0962    -0.1480    -3.0001   -50.9717     0.0000   390.0000     0.0000     1.0000   300.0000   300.0000   -41.3462    53.3970    -1.9790    -1.4485    20.0000    20.0000    10.0000    20.0000    26.0000    10.0000    16.0000    20.0000    -0.0005     0.0005   159.4164   -41.1662     3.1233    30.9497    14.7000     2.0000     1.0000   299.9930     0.000
     17     2.0000     0.0000    -0.0001    15.9998     26.883     27.000 194311.000     30.000    46.2221   -20.0773   -28.1598   120.0962    -0.1480    -3.0001   -50.7492     0.0000   390.0000     0.0000     1.0000   300.0000   300.0000   -41.5181    53.6418    -1.9790    -1.4485    20.0000    20.0000    10.0000    20.0000    26.0000    10.0000    16.0000    20.0000    -0.0005     0.0005   159.4164   -41.1662     3.1232    30.6998    14.7000     2.0000     1.0000   299.9990     0.000
     18     2.0000    -0.0000    -0.0001    15.7505     26.861     24.000 194311.000     30.000    46.4115   -20.0773   -28.2773   120.0962    -0.1480    -3.0001   -50.5260     0.0000   390.0000     0.0000     1.0000   300.0000   300.0000   -41.6898    53.8871    -1.9790    -1.4485    20.0000    20.0000    10.0000    20.0000    26.0000    10.0000    16.0000    20.0000    -0.0005     0.0005   159.4164   -41.1662     3.1231    30.4505    14.7000     2.0000     1.0000   300.0000     0.000
     19     2.0000     0.0000    -0.0001    15.4998     27.067     18.000 194311.000     30.000    46.6032   -20.0773   -28.3968   120.0962    -0.1480    -3.0001   -50.3021     0.0000   390.0000     0.0000     1.0000   300.0000   300.0000   -41.8614    54.1365    -1.9790    -1.4485    20.0000    20.0000    10.0000    20.0000    26.0000    10.0000    16.0000    20.0000    -0.0005     0.0005   159.4164   -41.1662     3.1232    30.1998    14.7000     2.0000     1.0000   299.9940     0.000
     20     2.0001    -0.0000    -0.0001    15.2501     27.040     27.000 194311.000     30.000    46.7972   -20.0773   -28.5175   120.0962    -0.1480    -3.0001   -50.0773     0.0000   390.0000     0.0000     1.0000   300.0000   300.0000   -42.0326    54.3873    -1.9790    -1.4485    20.0000    20.0000    10.0000    20.0000    26.0000    10.0000    16.0000    20.0000    -0.0005     0.0005   159.4164   -41.1662     3.1233    29.9501    14.7000     2.0000     1.0000   300.0020     0.000
     21     2.0000    -0.0000    -0.0001    15.0002     27.136     21.000 194311.000     30.000    46.9938   -20.0773   -28.6397   120.0962    -0.1480    -3.0001   -49.8518     0.0000   390.0000     0.0000     1.0000   300.0000   300.0000   -42.2041    54.6324    -1.9790    -1.4485    20.0000    20.0000    10.0000    20.0000    26.0000    10.0000    16.0000    20.0000    -0.0005     0.0005   159.4164   -41.1662     3.1231    29.7002    14.7000     2.0000     1.0000   299.9900     0.000
     22     2.0000     0.0000    -0.0001    14.7497     27.020     27.000 194311.000     30.000    47.1929   -20.0773   -28.7639   120.0962    -0.1480    -3.0001   -49.6254     0.0000   390.0000     0.0000     1.0000   300.0000   300.0000   -42.3749    54.8814    -1.9790    -1.4485    20.0000    20.0000    10.0000    20.0000    26.0000    10.0000    16.0000    20.0000    -0.0005     0.0005   159.4164   -41.1662     3.1231    29.4497    14.7000     2.0000     1.0000   299.9940     0.000
     23     2.0000     0.0000    -0.0001    14.4999     26.845     27.000 194311.000     30.000    47.3944   -20.0773   -28.8893   120.0962    -0.1480    -3.0001   -49.3982     0.0000   390.0000     0.0000     1.0000   300.0000   300.0000   -42.5459    55.1332    -1.9790    -1.4485    20.0000    20.0000    10.0000    20.0000    26.0000    10.0000    16.0000    20.0000    -0.0005     0.0005   159.4164   -41.1662     3.1232    29.1999    14.7000     2.0000     1.0000   299.9980     0.000
     24     2.0001    -0.0000    -0.0001    14.2506     26.298     35.000 194311.000     30.000    47.5986   -20.0773   -29.0161   120.0962    -0.1480    -3.0001   -49.1702     0.0000   390.0000     0.0000     1.0000   300.0000   300.0000   -42.7169    55.3859    -1.9790    -1.4485    20.0000    20.0000    10.0000    20.0000    26.0000    10.0000    16.0000    20.0000    -0.0005     0.0005   159.4164   -41.1662     3.1233    28.9507    14.7000     2.0000     1.0000   300.0040     0.000
     25     2.0000     0.0000    -0.0001    13.9994     26.000     29.000 194311.000     30.000    47.8055   -20.0773   -29.1456   120.0962    -0.1480    -3.0001   -48.9414     0.0000   390.0000     0.0000     1.0000   300.0000   300.0000   -42.8874    55.6353    -1.9790    -1.4485    20.0000    20.0000    10.0000    20.0000    26.0000    10.0000    16.0000    20.0000    -0.0005     0.0005   159.4164   -41.1662     3.1232    28.6995    14.7000     2.0000     1.0000   299.9940     0.000
     26     2.0000    -0.0000    -0.0001    13.7502     25.623     43.000 194311.000     30.000    48.0151   -20.0773   -29.2759   120.0962    -0.1480    -3.0001   -48.7117     0.0000   390.0000     0.0000     1.0000   300.0000   300.0000   -43.0583    55.8863    -1.9790    -1.4485    20.0000    20.0000    10.0000    20.0000    26.0000    10.0000    16.0000    20.0000    -0.0005     0.0005   159.4164   -41.1662     3.1231    28.4502    14.7000     2.0000     1.0000   300.0090     0.000
     27     2.0000    -0.0000    -0.0001    13.5004     25.460     31.000 194311.000     30.000    48.2274   -20.0773   -29.4082   120.0962    -0.1480    -3.0001   -48.4811     0.0000   390.0000     0.0000     1.0000   300.0000   300.0000   -43.2286    56.1403    -1.9790    -1.4485    20.0000    20.0000    10.0000    20.0000    26.0000    10.0000    16.0000    20.0000    -0.0005     0.0005   159.4164   -41.1662     3.1232    28.2004    14.7000     2.0000     1.0000   299.9410     0.000
     28     2.0001    -0.0000    -0.0001    13.2497     25.378     33.000 194311.000     30.000    48.4427   -20.0773   -29.5428   120.0962    -0.1480    -3.0001   -48.2497     0.0000   390.0000     0.0000     1.0000   300.0000   300.0000   -43.3990    56.3972    -1.9790    -1.4485    20.0000    20.0000    10.0000    20.0000    26.0000    10.0000    16.0000    20.0000    -0.0005     0.0005   159.4164   -41.1662     3.1233    27.9497    14.7000     2.0000     1.0000   299.9860     0.000
     29     2.0000     0.0000    -0.0001    12.9999     25.549     43.000 194311.000     30.000    48.6608   -20.0773   -29.6787   120.0962    -0.1480    -3.0001   -48.0174     0.0000   390.0000     0.0000     1.0000   300.0000   300.0000   -43.5691    56.6468    -1.9790    -1.4485    20.0000    20.0000    10.0000    20.0000    26.0000    10.0000    16.0000    20.0000    -0.0005     0.0005   159.4164   -41.1662     3.1231    27.7000    14.7000     2.0000     1.0000   300.0190     0.000
     30     2.0000    -0.0000    -0.0001    12.7500     26.025     51.000 194311.000     30.000    48.8819   -20.0773   -29.8166   120.0962    -0.1480    -3.0001   -47.7842     0.0000   390.0000     0.0000     1.0000   300.0000   300.0000   -43.7392    56.9033    -1.9790    -1.4485    20.0000    20.0000    10.0000    20.0000    26.0000    10.0000    16.0000    20.0000    -0.0005     0.0005   159.4164   -41.1662     3.1232    27.4500    14.7000     2.0000     1.0000   299.9840     0.000
     31     2.0000     0.0000    -0.0001    12.5000     26.268     41.000 194311.000     30.000    49.1060   -20.0773   -29.9565   120.0962    -0.1480    -3.0001   -47.5501     0.0000   390.0000     0.0000     1.0000   300.0000   300.0000   -43.9091    57.1590    -1.9790    -1.4485    20.0000    20.0000    10.0000    20.0000    26.0000    10.0000    16.0000    20.0000    -0.0005     0.0005   159.4164   -41.1662     3.1232    27.2000    14.7000     2.0000     1.0000   300.0150     0.000
     32     2.0001    -0.0000    -0.0001    12.2506     26.504     48.000 194311.000     30.000    49.3332   -20.0773   -30.0981   120.0962    -0.1480    -3.0001   -47.3151     0.0000   390.0000     0.0000     1.0000   300.0000   300.0000   -44.0794    57.4174    -1.9790    -1.4485    20.0000    20.0000    10.0000    20.0000    26.0000    10.0000    16.0000    20.0000    -0.0005     0.0005   159.4164   -41.1662     3.1233    26.9506    14.7000     2.0000     1.0000   300.0180     0.000
     33     2.0000     0.0000    -0.0001    11.9999     26.893     45.000 194311.000     30.000    49.5636   -20.0773   -30.2424   120.0962    -0.1480    -3.0001   -47.0791     0.0000   390.0000     0.0000     1.0000   300.0000   300.0000   -44.2490    57.6731    -1.9790    -1.4485    20.0000    20.0000    10.0000    20.0000    26.0000    10.0000    16.0000    20.0000    -0.0005     0.0005   159.4164   -41.1662     3.1232    26.6999    14.7000     2.0000     1.0000   300.0010     0.000
     34     2.0001    -0.0000    -0.0001    11.7500     27.038     49.000 194311.000     30.000    49.7973   -20.0773   -30.3884   120.0962    -0.1480    -3.0001   -46.8422     0.0000   390.0000     0.0000     1.0000   300.0000   300.0000   -44.4188    57.9342    -1.9790    -1.4485    20.0000    20.0000    10.0000    20.0000    26.0000    10.0000    16.0000    20.0000    -0.0005     0.0005   159.4164   -41.1662     3.1233    26.4500    14.7000     2.0000     1.0000   299.9890     0.000
     35     2.0001    -0.0000    -0.0001    11.5002     26.837     62.000 194311.000     30.000    50.0343   -20.0773   -30.5364   120.0962    -0.1480    -3.0001   -46.6044     0.0000   390.0000     0.0000     1.0000   300.0000   300.0000   -44.5881    58.1932    -1.9790    -1.4485    20.0000    20.0000    10.0000    20.0000    26.0000    10.0000    16.0000    20.0000    -0.0005     0.0005   159.4164   -41.1662     3.1233    26.2002    14.7000     2.0000     1.0000   300.0040     0.000
     36     2.0000     0.0000    -0.0001    11.2500     26.768     53.000 194311.000     30.000    50.2748   -20.0773   -30.6869   120.0962    -0.1480    -3.0001   -46.3655     0.0000   390.0000     0.0000     1.0000   300.0000   300.0000   -44.7578    58.4501    -1.9790    -1.4485    20.0000    20.0000    10.0000    20.0000    26.0000    10.0000    16.0000    20.0000    -0.0005     0.0005   159.4164   -41.1662     3.1231    25.9500    14.7000     2.0000     1.0000   299.9910     0.000
     37     2.0000    -0.0000    -0.0001    10.9999     26.389     59.000 194311.000     30.000    50.5187   -20.0773   -30.8395   120.0962    -0.1480    -3.0001   -46.1257     0.0000   390.0000     0.0000     1.0000   300.0000   300.0000   -44.9273    58.7133    -1.9790    -1.4485    20.0000    20.0000    10.0000    20.0000    26.0000    10.0000    16.0000    20.0000    -0.0005     0.0005   159.4164   -41.1662     3.1232    25.6999    14.7000     2.0000     1.0000   299.9960     0.000
