# scan = 158
# date = 9/8/2024
# time = 1:25:28 AM
# proposal = 32905
# experiment = Effects of electric field on phonon dispersion and lifetimes of poled PMN-30PT
# experiment_number = 812
# command = scan h 2 k -0.2 l 0 e 20 0.5 0.25 preset mcu 30
# builtin_command = scan h 2 k -0.2 l 0 e 20 0.5 0.25 preset mcu 30
# users = George Yumnam, Michael Manley, Puspa Upreti, Raphael Hermann, SHAOFEI WANG
# local_contact = Songxue Chi
# scan_title = (2,-0.2,0) G to X transverse mode scan at 390V after volatge breaks
# monochromator = PG002
# analyzer = Pg002
# sense = -+-
# collimation = 48-40-40-120
# samplename = PMN-30PT
# sampletype = crystal
# samplemosaic = 30.000000
# latticeconstants = 4.023634,4.023634,4.023634,90.000000,90.000000,90.000000
# ubmatrix = -0.008055,-0.248252,-0.008588,-0.248328,0.007840,0.006285,-0.006007,0.008785,-0.248304
# mode = 0
# plane_normal = 0.034555,-0.025290,0.999083
# ubconf = UB04Sep2024_115522AM.ini
# preset_type = normal
# preset_channel = mcu
# preset_value = 30.000000
# def_x = e
# def_y = detector
# col_headers =
#   Pt.          h          k          l          e       time   detector    monitor        mcu focal_length         m1         m2   mcrystal       marc     mtrans     mfocus       ampl         dc       freq     output       temp     temp_2         s1         s2        sgl        sgu        bbb        bbl        bbr        bbt        bab        bal        bar        bat        stl        stu         a1         a2          q         ei         ef   ampl_out output_state        vti     sample
      1     1.9999    -0.2001    -0.0001    20.0027     25.139     38.000 194311.000     30.000    43.4765   -20.0773   -26.4546   120.0962    -0.1480    -3.0001   -54.2224     0.0000   390.0000     0.0000     1.0000   300.0000   300.0000   -44.4556    50.0759    -1.9790    -1.4485    20.0000    20.0000    10.0000    20.0000    26.0000    10.0000    16.0000    20.0000    -0.0005     0.0005   159.4164   -41.1662     3.1386    34.7027    14.7000     2.0000     1.0000   300.0640     0.000
      2     2.0000    -0.2000    -0.0001    19.7498     25.137     36.000 194311.000     30.000    43.6339   -20.0773   -26.5533   120.0962    -0.1480    -3.0001   -54.0105     0.0000   390.0000     0.0000     1.0000   300.0000   300.0000   -44.6279    50.3224    -1.9790    -1.4485    20.0000    20.0000    10.0000    20.0000    26.0000    10.0000    16.0000    20.0000    -0.0005     0.0005   159.4164   -41.1662     3.1388    34.4498    14.7000     2.0000     1.0000   300.0360     0.000
      3     2.0000    -0.2000    -0.0001    19.4997     25.189     32.000 194311.000     30.000    43.7931   -20.0773   -26.6520   120.0962    -0.1480    -3.0001   -53.7978     0.0000   390.0000     0.0000     1.0000   300.0000   300.0000   -44.8010    50.5639    -1.9790    -1.4485    20.0000    20.0000    10.0000    20.0000    26.0000    10.0000    16.0000    20.0000    -0.0005     0.0005   159.4164   -41.1662     3.1388    34.1997    14.7000     2.0000     1.0000   300.0170     0.000
      4     2.0000    -0.2000    -0.0001    19.2502     25.248     30.000 194311.000     30.000    43.9541   -20.0773   -26.7515   120.0962    -0.1480    -3.0001   -53.5845     0.0000   390.0000     0.0000     1.0000   300.0000   300.0000   -44.9727    50.8044    -1.9790    -1.4485    20.0000    20.0000    10.0000    20.0000    26.0000    10.0000    16.0000    20.0000    -0.0005     0.0005   159.4164   -41.1662     3.1387    33.9502    14.7000     2.0000     1.0000   299.9630     0.000
      5     2.0000    -0.2000    -0.0001    19.0002     25.250     46.000 194311.000     30.000    44.1168   -20.0773   -26.8524   120.0962    -0.1480    -3.0001   -53.3706     0.0000   390.0000     0.0000     1.0000   300.0000   300.0000   -45.1448    51.0466    -1.9790    -1.4485    20.0000    20.0000    10.0000    20.0000    26.0000    10.0000    16.0000    20.0000    -0.0005     0.0005   159.4164   -41.1662     3.1388    33.7002    14.7000     2.0000     1.0000   299.9980     0.000
      6     2.0000    -0.2000    -0.0001    18.7495     25.577     44.000 194311.000     30.000    44.2813   -20.0773   -26.9548   120.0962    -0.1480    -3.0001   -53.1560     0.0000   390.0000     0.0000     1.0000   300.0000   300.0000   -45.3166    51.2891    -1.9790    -1.4485    20.0000    20.0000    10.0000    20.0000    26.0000    10.0000    16.0000    20.0000    -0.0005     0.0005   159.4164   -41.1662     3.1387    33.4495    14.7000     2.0000     1.0000   299.9980     0.000
      7     2.0001    -0.2000    -0.0001    18.5001     25.770     40.000 194311.000     30.000    44.4478   -20.0773   -27.0577   120.0962    -0.1480    -3.0001   -52.9407     0.0000   390.0000     0.0000     1.0000   300.0000   300.0000   -45.4879    51.5328    -1.9790    -1.4485    20.0000    20.0000    10.0000    20.0000    26.0000    10.0000    16.0000    20.0000    -0.0005     0.0005   159.4164   -41.1662     3.1388    33.2001    14.7000     2.0000     1.0000   299.9900     0.000
      8     2.0001    -0.2000    -0.0001    18.2502     26.007     30.000 194311.000     30.000    44.6161   -20.0773   -27.1621   120.0962    -0.1480    -3.0001   -52.7248     0.0000   390.0000     0.0000     1.0000   300.0000   300.0000   -45.6594    51.7751    -1.9790    -1.4485    20.0000    20.0000    10.0000    20.0000    26.0000    10.0000    16.0000    20.0000    -0.0005     0.0005   159.4164   -41.1662     3.1388    32.9502    14.7000     2.0000     1.0000   299.9780     0.000
      9     2.0000    -0.2000    -0.0001    17.9999     26.057     38.000 194311.000     30.000    44.7863   -20.0773   -27.2678   120.0962    -0.1480    -3.0001   -52.5081     0.0000   390.0000     0.0000     1.0000   300.0000   300.0000   -45.8306    52.0176    -1.9790    -1.4485    20.0000    20.0000    10.0000    20.0000    26.0000    10.0000    16.0000    20.0000    -0.0005     0.0005   159.4164   -41.1662     3.1388    32.7000    14.7000     2.0000     1.0000   300.0070     0.000
     10     2.0000    -0.2000    -0.0001    17.7505     26.057     31.000 194311.000     30.000    44.9585   -20.0773   -27.3745   120.0962    -0.1480    -3.0001   -52.2908     0.0000   390.0000     0.0000     1.0000   300.0000   300.0000   -46.0015    52.2594    -1.9790    -1.4485    20.0000    20.0000    10.0000    20.0000    26.0000    10.0000    16.0000    20.0000    -0.0005     0.0005   159.4164   -41.1662     3.1387    32.4505    14.7000     2.0000     1.0000   299.9920     0.000
     11     2.0000    -0.2000    -0.0001    17.4997     26.285     25.000 194311.000     30.000    45.1326   -20.0773   -27.4829   120.0962    -0.1480    -3.0001   -52.0728     0.0000   390.0000     0.0000     1.0000   300.0000   300.0000   -46.1720    52.5046    -1.9790    -1.4485    20.0000    20.0000    10.0000    20.0000    26.0000    10.0000    16.0000    20.0000    -0.0005     0.0005   159.4164   -41.1662     3.1387    32.1997    14.7000     2.0000     1.0000   299.9720     0.000
     12     2.0000    -0.2000    -0.0001    17.2498     26.413     33.000 194311.000     30.000    45.3089   -20.0773   -27.5924   120.0962    -0.1480    -3.0001   -51.8540     0.0000   390.0000     0.0000     1.0000   300.0000   300.0000   -46.3425    52.7505    -1.9790    -1.4485    20.0000    20.0000    10.0000    20.0000    26.0000    10.0000    16.0000    20.0000    -0.0005     0.0005   159.4164   -41.1662     3.1388    31.9498    14.7000     2.0000     1.0000   300.0110     0.000
     13     2.0001    -0.2000    -0.0001    17.0002     26.538     44.000 194311.000     30.000    45.4872   -20.0773   -27.7029   120.0962    -0.1480    -3.0001   -51.6345     0.0000   390.0000     0.0000     1.0000   300.0000   300.0000   -46.5131    52.9960    -1.9790    -1.4485    20.0000    20.0000    10.0000    20.0000    26.0000    10.0000    16.0000    20.0000    -0.0005     0.0005   159.4164   -41.1662     3.1388    31.7003    14.7000     2.0000     1.0000   300.0010     0.000
     14     2.0000    -0.2000    -0.0001    16.7497     26.503     34.000 194311.000     30.000    45.6676   -20.0773   -27.8152   120.0962    -0.1480    -3.0001   -51.4143     0.0000   390.0000     0.0000     1.0000   300.0000   300.0000   -46.6833    53.2387    -1.9790    -1.4485    20.0000    20.0000    10.0000    20.0000    26.0000    10.0000    16.0000    20.0000    -0.0005     0.0005   159.4164   -41.1662     3.1387    31.4497    14.7000     2.0000     1.0000   299.9880     0.000
     15     2.0000    -0.2000    -0.0001    16.5002     26.599     29.000 194311.000     30.000    45.8503   -20.0773   -27.9285   120.0962    -0.1480    -3.0001   -51.1934     0.0000   390.0000     0.0000     1.0000   300.0000   300.0000   -46.8534    53.4844    -1.9790    -1.4485    20.0000    20.0000    10.0000    20.0000    26.0000    10.0000    16.0000    20.0000    -0.0005     0.0005   159.4164   -41.1662     3.1387    31.2002    14.7000     2.0000     1.0000   300.0140     0.000
     16     2.0000    -0.2000    -0.0001    16.2498     26.601     44.000 194311.000     30.000    46.0351   -20.0773   -28.0435   120.0962    -0.1480    -3.0001   -50.9717     0.0000   390.0000     0.0000     1.0000   300.0000   300.0000   -47.0230    53.7320    -1.9790    -1.4485    20.0000    20.0000    10.0000    20.0000    26.0000    10.0000    16.0000    20.0000    -0.0005     0.0005   159.4164   -41.1662     3.1387    30.9498    14.7000     2.0000     1.0000   299.9540     0.000
     17     2.0001    -0.2000    -0.0001    15.9997     26.625     40.000 194311.000     30.000    46.2221   -20.0773   -28.1599   120.0962    -0.1480    -3.0001   -50.7492     0.0000   390.0000     0.0000     1.0000   300.0000   300.0000   -47.1928    53.9812    -1.9790    -1.4485    20.0000    20.0000    10.0000    20.0000    26.0000    10.0000    16.0000    20.0000    -0.0005     0.0005   159.4164   -41.1662     3.1388    30.6997    14.7000     2.0000     1.0000   300.0110     0.000
     18     2.0000    -0.2000    -0.0001    15.7505     26.950     44.000 194311.000     30.000    46.4115   -20.0773   -28.2773   120.0962    -0.1480    -3.0001   -50.5260     0.0000   390.0000     0.0000     1.0000   300.0000   300.0000   -47.3625    54.2261    -1.9790    -1.4485    20.0000    20.0000    10.0000    20.0000    26.0000    10.0000    16.0000    20.0000    -0.0005     0.0005   159.4164   -41.1662     3.1388    30.4505    14.7000     2.0000     1.0000   300.0110     0.000
     19     2.0000    -0.2000    -0.0001    15.4998     26.963     44.000 194311.000     30.000    46.6032   -20.0773   -28.3968   120.0962    -0.1480    -3.0001   -50.3021     0.0000   390.0000     0.0000     1.0000   300.0000   300.0000   -47.5319    54.4753    -1.9790    -1.4485    20.0000    20.0000    10.0000    20.0000    26.0000    10.0000    16.0000    20.0000    -0.0005     0.0005   159.4164   -41.1662     3.1388    30.1998    14.7000     2.0000     1.0000   299.9950     0.000
     20     2.0000    -0.2000    -0.0001    15.2501     27.069     56.000 194311.000     30.000    46.7972   -20.0773   -28.5175   120.0962    -0.1480    -3.0001   -50.0773     0.0000   390.0000     0.0000     1.0000   300.0000   300.0000   -47.7011    54.7231    -1.9790    -1.4485    20.0000    20.0000    10.0000    20.0000    26.0000    10.0000    16.0000    20.0000    -0.0005     0.0005   159.4164   -41.1662     3.1388    29.9501    14.7000     2.0000     1.0000   300.0030     0.000
     21     2.0001    -0.2000    -0.0001    15.0002     27.009     59.000 194311.000     30.000    46.9938   -20.0773   -28.6397   120.0962    -0.1480    -3.0001   -49.8518     0.0000   390.0000     0.0000     1.0000   300.0000   300.0000   -47.8700    54.9739    -1.9790    -1.4485    20.0000    20.0000    10.0000    20.0000    26.0000    10.0000    16.0000    20.0000    -0.0005     0.0005   159.4164   -41.1662     3.1388    29.7002    14.7000     2.0000     1.0000   300.0060     0.000
     22     2.0000    -0.2000    -0.0001    14.7497     27.023     78.000 194311.000     30.000    47.1929   -20.0773   -28.7639   120.0962    -0.1480    -3.0001   -49.6254     0.0000   390.0000     0.0000     1.0000   300.0000   300.0000   -48.0393    55.2220    -1.9790    -1.4485    20.0000    20.0000    10.0000    20.0000    26.0000    10.0000    16.0000    20.0000    -0.0005     0.0005   159.4164   -41.1662     3.1387    29.4497    14.7000     2.0000     1.0000   300.0010     0.000
     23     2.0000    -0.2000    -0.0001    14.4999     26.851     68.000 194311.000     30.000    47.3944   -20.0773   -28.8893   120.0962    -0.1480    -3.0001   -49.3982     0.0000   390.0000     0.0000     1.0000   300.0000   300.0000   -48.2078    55.4729    -1.9790    -1.4485    20.0000    20.0000    10.0000    20.0000    26.0000    10.0000    16.0000    20.0000    -0.0005     0.0005   159.4164   -41.1662     3.1388    29.1999    14.7000     2.0000     1.0000   300.0060     0.000
     24     2.0000    -0.2000    -0.0001    14.2506     26.358     75.000 194311.000     30.000    47.5986   -20.0773   -29.0161   120.0962    -0.1480    -3.0001   -49.1702     0.0000   390.0000     0.0000     1.0000   300.0000   300.0000   -48.3768    55.7243    -1.9790    -1.4485    20.0000    20.0000    10.0000    20.0000    26.0000    10.0000    16.0000    20.0000    -0.0005     0.0005   159.4164   -41.1662     3.1388    28.9507    14.7000     2.0000     1.0000   300.0050     0.000
     25     2.0001    -0.2000    -0.0001    13.9994     25.942     72.000 194311.000     30.000    47.8055   -20.0773   -29.1457   120.0962    -0.1480    -3.0001   -48.9414     0.0000   390.0000     0.0000     1.0000   300.0000   300.0000   -48.5450    55.9775    -1.9790    -1.4485    20.0000    20.0000    10.0000    20.0000    26.0000    10.0000    16.0000    20.0000    -0.0005     0.0005   159.4164   -41.1662     3.1388    28.6994    14.7000     2.0000     1.0000   300.0130     0.000
     26     2.0000    -0.2000    -0.0001    13.7503     25.555     85.000 194311.000     30.000    48.0151   -20.0773   -29.2758   120.0962    -0.1480    -3.0001   -48.7117     0.0000   390.0000     0.0000     1.0000   300.0000   300.0000   -48.7140    56.2288    -1.9790    -1.4485    20.0000    20.0000    10.0000    20.0000    26.0000    10.0000    16.0000    20.0000    -0.0005     0.0005   159.4164   -41.1662     3.1388    28.4503    14.7000     2.0000     1.0000   300.0010     0.000
     27     2.0000    -0.2000    -0.0001    13.5004     25.395     88.000 194311.000     30.000    48.2274   -20.0773   -29.4082   120.0962    -0.1480    -3.0001   -48.4811     0.0000   390.0000     0.0000     1.0000   300.0000   300.0000   -48.8816    56.4804    -1.9790    -1.4485    20.0000    20.0000    10.0000    20.0000    26.0000    10.0000    16.0000    20.0000    -0.0005     0.0005   159.4164   -41.1662     3.1387    28.2004    14.7000     2.0000     1.0000   300.0040     0.000
     28     2.0000    -0.2000    -0.0001    13.2496     25.304    108.000 194311.000     30.000    48.4427   -20.0773   -29.5428   120.0962    -0.1480    -3.0001   -48.2497     0.0000   390.0000     0.0000     1.0000   300.0000   300.0000   -49.0499    56.7357    -1.9790    -1.4485    20.0000    20.0000    10.0000    20.0000    26.0000    10.0000    16.0000    20.0000    -0.0005     0.0005   159.4164   -41.1662     3.1387    27.9496    14.7000     2.0000     1.0000   299.9990     0.000
     29     2.0001    -0.2000    -0.0001    13.0000     25.652    117.000 194311.000     30.000    48.6608   -20.0773   -29.6786   120.0962    -0.1480    -3.0001   -48.0174     0.0000   390.0000     0.0000     1.0000   300.0000   300.0000   -49.2181    56.9924    -1.9790    -1.4485    20.0000    20.0000    10.0000    20.0000    26.0000    10.0000    16.0000    20.0000    -0.0005     0.0005   159.4164   -41.1662     3.1388    27.7000    14.7000     2.0000     1.0000   300.0150     0.000
     30     2.0001    -0.2000    -0.0001    12.7500     25.881     98.000 194311.000     30.000    48.8819   -20.0773   -29.8166   120.0962    -0.1480    -3.0001   -47.7842     0.0000   390.0000     0.0000     1.0000   300.0000   300.0000   -49.3859    57.2479    -1.9790    -1.4485    20.0000    20.0000    10.0000    20.0000    26.0000    10.0000    16.0000    20.0000    -0.0005     0.0005   159.4164   -41.1662     3.1388    27.4500    14.7000     2.0000     1.0000   300.0130     0.000
     31     2.0000    -0.2000    -0.0001    12.4998     26.384     99.000 194311.000     30.000    49.1060   -20.0773   -29.9566   120.0962    -0.1480    -3.0001   -47.5501     0.0000   390.0000     0.0000     1.0000   300.0000   300.0000   -49.5540    57.5027    -1.9790    -1.4485    20.0000    20.0000    10.0000    20.0000    26.0000    10.0000    16.0000    20.0000    -0.0005     0.0005   159.4164   -41.1662     3.1387    27.1998    14.7000     2.0000     1.0000   299.9930     0.000
     32     2.0001    -0.2000    -0.0001    12.2504     26.662     82.000 194311.000     30.000    49.3332   -20.0773   -30.0982   120.0962    -0.1480    -3.0001   -47.3151     0.0000   390.0000     0.0000     1.0000   300.0000   300.0000   -49.7212    57.7617    -1.9790    -1.4485    20.0000    20.0000    10.0000    20.0000    26.0000    10.0000    16.0000    20.0000    -0.0005     0.0005   159.4164   -41.1662     3.1388    26.9504    14.7000     2.0000     1.0000   300.0130     0.000
     33     2.0000    -0.2000    -0.0001    11.9997     26.910     95.000 194311.000     30.000    49.5636   -20.0773   -30.2425   120.0962    -0.1480    -3.0001   -47.0791     0.0000   390.0000     0.0000     1.0000   300.0000   300.0000   -49.8891    58.0198    -1.9790    -1.4485    20.0000    20.0000    10.0000    20.0000    26.0000    10.0000    16.0000    20.0000    -0.0005     0.0005   159.4164   -41.1662     3.1388    26.6997    14.7000     2.0000     1.0000   299.9580     0.000
     34     2.0000    -0.2000    -0.0001    11.7500     26.849     66.000 194311.000     30.000    49.7973   -20.0773   -30.3883   120.0962    -0.1480    -3.0001   -46.8422     0.0000   390.0000     0.0000     1.0000   300.0000   300.0000   -50.0562    58.2775    -1.9790    -1.4485    20.0000    20.0000    10.0000    20.0000    26.0000    10.0000    16.0000    20.0000    -0.0005     0.0005   159.4164   -41.1662     3.1387    26.4500    14.7000     2.0000     1.0000   299.9840     0.000
     35     2.0000    -0.2000    -0.0001    11.5001     26.761     77.000 194311.000     30.000    50.0343   -20.0773   -30.5364   120.0962    -0.1480    -3.0001   -46.6044     0.0000   390.0000     0.0000     1.0000   300.0000   300.0000   -50.2239    58.5373    -1.9790    -1.4485    20.0000    20.0000    10.0000    20.0000    26.0000    10.0000    16.0000    20.0000    -0.0005     0.0005   159.4164   -41.1662     3.1387    26.2001    14.7000     2.0000     1.0000   300.0150     0.000
     36     2.0001    -0.2000    -0.0001    11.2501     26.600     69.000 194311.000     30.000    50.2748   -20.0773   -30.6868   120.0962    -0.1480    -3.0001   -46.3655     0.0000   390.0000     0.0000     1.0000   300.0000   300.0000   -50.3909    58.8009    -1.9790    -1.4485    20.0000    20.0000    10.0000    20.0000    26.0000    10.0000    16.0000    20.0000    -0.0005     0.0005   159.4164   -41.1662     3.1388    25.9501    14.7000     2.0000     1.0000   300.0080     0.000
     37     2.0000    -0.2000    -0.0001    11.0000     26.378     62.000 194311.000     30.000    50.5187   -20.0773   -30.8395   120.0962    -0.1480    -3.0001   -46.1257     0.0000   390.0000     0.0000     1.0000   300.0000   300.0000   -50.5579    59.0588    -1.9790    -1.4485    20.0000    20.0000    10.0000    20.0000    26.0000    10.0000    16.0000    20.0000    -0.0005     0.0005   159.4164   -41.1662     3.1387    25.7000    14.7000     2.0000     1.0000   299.9950     0.000
