# scan = 75
# date = 9/5/2024
# time = 7:55:49 PM
# proposal = 32905
# experiment = Effects of electric field on phonon dispersion and lifetimes of poled PMN-30PT
# experiment_number = 812
# command = scan h 2 k -0.15 l 0 e 20 0 0.25 preset mcu 30
# builtin_command = scan h 2 k -0.15 l 0 e 20 0 0.25 preset mcu 30
# users = George Yumnam, Michael Manley, Puspa Upreti, Raphael Hermann, SHAOFEI WANG
# local_contact = Songxue Chi
# scan_title = (2,-0.15,0) G to X transverse mode scan at E 240 V
# monochromator = PG002
# analyzer = Pg002
# sense = -+-
# collimation = 48-40-40-120
# samplename = PMN-30PT
# sampletype = crystal
# samplemosaic = 30.000000
# latticeconstants = 4.023634,4.023634,4.023634,90.000000,90.000000,90.000000
# ubmatrix = -0.008055,-0.248252,-0.008588,-0.248328,0.007840,0.006285,-0.006007,0.008785,-0.248304
# mode = 0
# plane_normal = 0.034555,-0.025290,0.999083
# ubconf = UB04Sep2024_115522AM.ini
# preset_type = normal
# preset_channel = mcu
# preset_value = 30.000000
# def_x = e
# def_y = detector
# col_headers =
#   Pt.          h          k          l          e       time   detector    monitor        mcu focal_length         m1         m2   mcrystal       marc     mtrans     mfocus       ampl         dc       freq     output       temp     temp_2         s1         s2        sgl        sgu        bbb        bbl        bbr        bbt        bab        bal        bar        bat        stl        stu         a1         a2          q         ei         ef   ampl_out output_state        vti     sample
      1     1.9999    -0.1500    -0.0001    20.0024     25.218     31.000 194311.000     30.000    43.4765   -20.0773   -26.4547   120.0962    -0.1480    -3.0001   -54.2224     0.0000   240.0000     0.0000     1.0000   300.0000   300.0000   -43.0352    49.9292    -1.9790    -1.4485    20.0000    20.0000    10.0000    20.0000    26.0000    10.0000    16.0000    20.0000    -0.0005     0.0005   159.4164   -41.1662     3.1318    34.7025    14.7000     2.0000     1.0000   300.0300     0.000
      2     2.0000    -0.1500    -0.0001    19.7498     25.230     37.000 194311.000     30.000    43.6339   -20.0773   -26.5533   120.0962    -0.1480    -3.0001   -54.0105     0.0000   240.0000     0.0000     1.0000   300.0000   300.0000   -43.2089    50.1765    -1.9790    -1.4485    20.0000    20.0000    10.0000    20.0000    26.0000    10.0000    16.0000    20.0000    -0.0005     0.0005   159.4164   -41.1662     3.1320    34.4498    14.7000     2.0000     1.0000   300.0130     0.000
      3     2.0000    -0.1500    -0.0001    19.4998     25.270     37.000 194311.000     30.000    43.7931   -20.0773   -26.6519   120.0962    -0.1480    -3.0001   -53.7978     0.0000   240.0000     0.0000     1.0000   300.0000   300.0000   -43.3825    50.4159    -1.9790    -1.4485    20.0000    20.0000    10.0000    20.0000    26.0000    10.0000    16.0000    20.0000    -0.0005     0.0005   159.4164   -41.1662     3.1319    34.1998    14.7000     2.0000     1.0000   300.0220     0.000
      4     2.0000    -0.1500    -0.0001    19.2501     25.495     37.000 194311.000     30.000    43.9541   -20.0773   -26.7516   120.0962    -0.1480    -3.0001   -53.5845     0.0000   240.0000     0.0000     1.0000   300.0000   300.0000   -43.5556    50.6568    -1.9790    -1.4485    20.0000    20.0000    10.0000    20.0000    26.0000    10.0000    16.0000    20.0000    -0.0005     0.0005   159.4164   -41.1662     3.1319    33.9501    14.7000     2.0000     1.0000   300.0040     0.000
      5     2.0000    -0.1500    -0.0001    19.0003     25.710     31.000 194311.000     30.000    44.1168   -20.0773   -26.8524   120.0962    -0.1480    -3.0001   -53.3706     0.0000   240.0000     0.0000     1.0000   300.0000   300.0000   -43.7280    50.8995    -1.9790    -1.4485    20.0000    20.0000    10.0000    20.0000    26.0000    10.0000    16.0000    20.0000    -0.0005     0.0005   159.4164   -41.1662     3.1319    33.7003    14.7000     2.0000     1.0000   300.0090     0.000
      6     2.0000    -0.1500    -0.0001    18.7494     25.710     35.000 194311.000     30.000    44.2813   -20.0773   -26.9548   120.0962    -0.1480    -3.0001   -53.1560     0.0000   240.0000     0.0000     1.0000   300.0000   300.0000   -43.9011    51.1428    -1.9790    -1.4485    20.0000    20.0000    10.0000    20.0000    26.0000    10.0000    16.0000    20.0000    -0.0005     0.0005   159.4164   -41.1662     3.1320    33.4494    14.7000     2.0000     1.0000   299.9900     0.000
      7     2.0001    -0.1500    -0.0001    18.5002     25.975     36.000 194311.000     30.000    44.4478   -20.0773   -27.0577   120.0962    -0.1480    -3.0001   -52.9407     0.0000   240.0000     0.0000     1.0000   300.0000   300.0000   -44.0734    51.3861    -1.9790    -1.4485    20.0000    20.0000    10.0000    20.0000    26.0000    10.0000    16.0000    20.0000    -0.0005     0.0005   159.4164   -41.1662     3.1320    33.2002    14.7000     2.0000     1.0000   300.0100     0.000
      8     2.0001    -0.1500    -0.0001    18.2502     26.057     29.000 194311.000     30.000    44.6161   -20.0773   -27.1621   120.0962    -0.1480    -3.0001   -52.7248     0.0000   240.0000     0.0000     1.0000   300.0000   300.0000   -44.2455    51.6283    -1.9790    -1.4485    20.0000    20.0000    10.0000    20.0000    26.0000    10.0000    16.0000    20.0000    -0.0005     0.0005   159.4164   -41.1662     3.1320    32.9502    14.7000     2.0000     1.0000   299.9890     0.000
      9     2.0000    -0.1500    -0.0001    17.9998     26.151     30.000 194311.000     30.000    44.7863   -20.0773   -27.2679   120.0962    -0.1480    -3.0001   -52.5081     0.0000   240.0000     0.0000     1.0000   300.0000   300.0000   -44.4175    51.8684    -1.9790    -1.4485    20.0000    20.0000    10.0000    20.0000    26.0000    10.0000    16.0000    20.0000    -0.0005     0.0005   159.4164   -41.1662     3.1318    32.6998    14.7000     2.0000     1.0000   300.0120     0.000
     10     2.0000    -0.1500    -0.0001    17.7506     26.328     30.000 194311.000     30.000    44.9585   -20.0773   -27.3744   120.0962    -0.1480    -3.0001   -52.2908     0.0000   240.0000     0.0000     1.0000   300.0000   300.0000   -44.5892    52.1139    -1.9790    -1.4485    20.0000    20.0000    10.0000    20.0000    26.0000    10.0000    16.0000    20.0000    -0.0005     0.0005   159.4164   -41.1662     3.1320    32.4506    14.7000     2.0000     1.0000   299.9970     0.000
     11     2.0000    -0.1500    -0.0001    17.4997     26.551     29.000 194311.000     30.000    45.1326   -20.0773   -27.4829   120.0962    -0.1480    -3.0001   -52.0728     0.0000   240.0000     0.0000     1.0000   300.0000   300.0000   -44.7613    52.3580    -1.9790    -1.4485    20.0000    20.0000    10.0000    20.0000    26.0000    10.0000    16.0000    20.0000    -0.0005     0.0005   159.4164   -41.1662     3.1319    32.1997    14.7000     2.0000     1.0000   300.0130     0.000
     12     2.0001    -0.1500    -0.0001    17.2498     26.640     31.000 194311.000     30.000    45.3089   -20.0773   -27.5924   120.0962    -0.1480    -3.0001   -51.8540     0.0000   240.0000     0.0000     1.0000   300.0000   300.0000   -44.9324    52.6040    -1.9790    -1.4485    20.0000    20.0000    10.0000    20.0000    26.0000    10.0000    16.0000    20.0000    -0.0005     0.0005   159.4164   -41.1662     3.1320    31.9498    14.7000     2.0000     1.0000   300.0010     0.000
     13     2.0000    -0.1500    -0.0001    17.0002     26.576     34.000 194311.000     30.000    45.4872   -20.0773   -27.7029   120.0962    -0.1480    -3.0001   -51.6345     0.0000   240.0000     0.0000     1.0000   300.0000   300.0000   -45.1039    52.8456    -1.9790    -1.4485    20.0000    20.0000    10.0000    20.0000    26.0000    10.0000    16.0000    20.0000    -0.0005     0.0005   159.4164   -41.1662     3.1319    31.7003    14.7000     2.0000     1.0000   300.0020     0.000
     14     2.0000    -0.1500    -0.0001    16.7497     26.792     30.000 194311.000     30.000    45.6676   -20.0773   -27.8152   120.0962    -0.1480    -3.0001   -51.4143     0.0000   240.0000     0.0000     1.0000   300.0000   300.0000   -45.2748    53.0918    -1.9790    -1.4485    20.0000    20.0000    10.0000    20.0000    26.0000    10.0000    16.0000    20.0000    -0.0005     0.0005   159.4164   -41.1662     3.1319    31.4497    14.7000     2.0000     1.0000   299.9310     0.000
     15     2.0000    -0.1500    -0.0001    16.5001     26.797     29.000 194311.000     30.000    45.8503   -20.0773   -27.9285   120.0962    -0.1480    -3.0001   -51.1934     0.0000   240.0000     0.0000     1.0000   300.0000   300.0000   -45.4459    53.3389    -1.9790    -1.4485    20.0000    20.0000    10.0000    20.0000    26.0000    10.0000    16.0000    20.0000    -0.0005     0.0005   159.4164   -41.1662     3.1320    31.2001    14.7000     2.0000     1.0000   300.0010     0.000
     16     2.0001    -0.1500    -0.0001    16.2499     26.779     37.000 194311.000     30.000    46.0351   -20.0773   -28.0435   120.0962    -0.1480    -3.0001   -50.9717     0.0000   240.0000     0.0000     1.0000   300.0000   300.0000   -45.6166    53.5865    -1.9790    -1.4485    20.0000    20.0000    10.0000    20.0000    26.0000    10.0000    16.0000    20.0000    -0.0005     0.0005   159.4164   -41.1662     3.1320    30.9499    14.7000     2.0000     1.0000   299.9980     0.000
     17     2.0000    -0.1500    -0.0001    15.9997     27.097     34.000 194311.000     30.000    46.2221   -20.0773   -28.1599   120.0962    -0.1480    -3.0001   -50.7492     0.0000   240.0000     0.0000     1.0000   300.0000   300.0000   -45.7871    53.8312    -1.9790    -1.4485    20.0000    20.0000    10.0000    20.0000    26.0000    10.0000    16.0000    20.0000    -0.0005     0.0005   159.4164   -41.1662     3.1319    30.6997    14.7000     2.0000     1.0000   300.0000     0.000
     18     2.0000    -0.1500    -0.0001    15.7505     27.082     36.000 194311.000     30.000    46.4115   -20.0773   -28.2773   120.0962    -0.1480    -3.0001   -50.5260     0.0000   240.0000     0.0000     1.0000   300.0000   300.0000   -45.9576    54.0765    -1.9790    -1.4485    20.0000    20.0000    10.0000    20.0000    26.0000    10.0000    16.0000    20.0000    -0.0005     0.0005   159.4164   -41.1662     3.1319    30.4505    14.7000     2.0000     1.0000   300.0140     0.000
     19     2.0000    -0.1500    -0.0001    15.4998     27.142     38.000 194311.000     30.000    46.6032   -20.0773   -28.3968   120.0962    -0.1480    -3.0001   -50.3021     0.0000   240.0000     0.0000     1.0000   300.0000   300.0000   -46.1281    54.3271    -1.9790    -1.4485    20.0000    20.0000    10.0000    20.0000    26.0000    10.0000    16.0000    20.0000    -0.0005     0.0005   159.4164   -41.1662     3.1320    30.1998    14.7000     2.0000     1.0000   300.0080     0.000
     20     2.0000    -0.1500    -0.0001    15.2500     27.241     28.000 194311.000     30.000    46.7972   -20.0773   -28.5175   120.0962    -0.1480    -3.0001   -50.0773     0.0000   240.0000     0.0000     1.0000   300.0000   300.0000   -46.2984    54.5751    -1.9790    -1.4485    20.0000    20.0000    10.0000    20.0000    26.0000    10.0000    16.0000    20.0000    -0.0005     0.0005   159.4164   -41.1662     3.1319    29.9500    14.7000     2.0000     1.0000   300.0210     0.000
     21     2.0000    -0.1500    -0.0001    15.0001     27.339     41.000 194311.000     30.000    46.9938   -20.0773   -28.6398   120.0962    -0.1480    -3.0001   -49.8518     0.0000   240.0000     0.0000     1.0000   300.0000   300.0000   -46.4681    54.8241    -1.9790    -1.4485    20.0000    20.0000    10.0000    20.0000    26.0000    10.0000    16.0000    20.0000    -0.0005     0.0005   159.4164   -41.1662     3.1319    29.7001    14.7000     2.0000     1.0000   299.9930     0.000
     22     2.0000    -0.1500    -0.0001    14.7497     27.256     42.000 194311.000     30.000    47.1929   -20.0773   -28.7639   120.0962    -0.1480    -3.0001   -49.6254     0.0000   240.0000     0.0000     1.0000   300.0000   300.0000   -46.6382    55.0733    -1.9790    -1.4485    20.0000    20.0000    10.0000    20.0000    26.0000    10.0000    16.0000    20.0000    -0.0005     0.0005   159.4164   -41.1662     3.1319    29.4497    14.7000     2.0000     1.0000   300.0240     0.000
     23     2.0000    -0.1500    -0.0001    14.4999     27.011     49.000 194311.000     30.000    47.3944   -20.0773   -28.8893   120.0962    -0.1480    -3.0001   -49.3982     0.0000   240.0000     0.0000     1.0000   300.0000   300.0000   -46.8076    55.3243    -1.9790    -1.4485    20.0000    20.0000    10.0000    20.0000    26.0000    10.0000    16.0000    20.0000    -0.0005     0.0005   159.4164   -41.1662     3.1319    29.1999    14.7000     2.0000     1.0000   300.0020     0.000
     24     2.0001    -0.1500    -0.0001    14.2506     26.663     62.000 194311.000     30.000    47.5986   -20.0773   -29.0161   120.0962    -0.1480    -3.0001   -49.1702     0.0000   240.0000     0.0000     1.0000   300.0000   300.0000   -46.9776    55.5777    -1.9790    -1.4485    20.0000    20.0000    10.0000    20.0000    26.0000    10.0000    16.0000    20.0000    -0.0005     0.0005   159.4164   -41.1662     3.1321    28.9507    14.7000     2.0000     1.0000   300.0130     0.000
     25     2.0000    -0.1500    -0.0001    13.9994     26.061     56.000 194311.000     30.000    47.8055   -20.0773   -29.1456   120.0962    -0.1480    -3.0001   -48.9414     0.0000   240.0000     0.0000     1.0000   300.0000   300.0000   -47.1470    55.8269    -1.9790    -1.4485    20.0000    20.0000    10.0000    20.0000    26.0000    10.0000    16.0000    20.0000    -0.0005     0.0005   159.4164   -41.1662     3.1319    28.6995    14.7000     2.0000     1.0000   299.9350     0.000
     26     2.0000    -0.1500    -0.0001    13.7502     25.733     50.000 194311.000     30.000    48.0151   -20.0773   -29.2759   120.0962    -0.1480    -3.0001   -48.7117     0.0000   240.0000     0.0000     1.0000   300.0000   300.0000   -47.3165    56.0775    -1.9790    -1.4485    20.0000    20.0000    10.0000    20.0000    26.0000    10.0000    16.0000    20.0000    -0.0005     0.0005   159.4164   -41.1662     3.1319    28.4502    14.7000     2.0000     1.0000   300.0160     0.000
     27     2.0001    -0.1500    -0.0001    13.5004     25.655     69.000 194311.000     30.000    48.2274   -20.0773   -29.4082   120.0962    -0.1480    -3.0001   -48.4811     0.0000   240.0000     0.0000     1.0000   300.0000   300.0000   -47.4855    56.3332    -1.9790    -1.4485    20.0000    20.0000    10.0000    20.0000    26.0000    10.0000    16.0000    20.0000    -0.0005     0.0005   159.4164   -41.1662     3.1320    28.2004    14.7000     2.0000     1.0000   299.9900     0.000
     28     2.0000    -0.1500    -0.0001    13.2496     25.600     77.000 194311.000     30.000    48.4427   -20.0773   -29.5428   120.0962    -0.1480    -3.0001   -48.2497     0.0000   240.0000     0.0000     1.0000   300.0000   300.0000   -47.6546    56.5869    -1.9790    -1.4485    20.0000    20.0000    10.0000    20.0000    26.0000    10.0000    16.0000    20.0000    -0.0005     0.0005   159.4164   -41.1662     3.1320    27.9496    14.7000     2.0000     1.0000   300.0130     0.000
     29     2.0000    -0.1500    -0.0001    13.0000     25.676     72.000 194311.000     30.000    48.6608   -20.0773   -29.6786   120.0962    -0.1480    -3.0001   -48.0174     0.0000   240.0000     0.0000     1.0000   300.0000   300.0000   -47.8239    56.8391    -1.9790    -1.4485    20.0000    20.0000    10.0000    20.0000    26.0000    10.0000    16.0000    20.0000    -0.0005     0.0005   159.4164   -41.1662     3.1319    27.7000    14.7000     2.0000     1.0000   300.0310     0.000
     30     2.0000    -0.1500    -0.0001    12.7500     26.185     91.000 194311.000     30.000    48.8819   -20.0773   -29.8166   120.0962    -0.1480    -3.0001   -47.7842     0.0000   240.0000     0.0000     1.0000   300.0000   300.0000   -47.9925    57.0956    -1.9790    -1.4485    20.0000    20.0000    10.0000    20.0000    26.0000    10.0000    16.0000    20.0000    -0.0005     0.0005   159.4164   -41.1662     3.1319    27.4500    14.7000     2.0000     1.0000   300.0030     0.000
     31     2.0000    -0.1500    -0.0001    12.4999     26.667     98.000 194311.000     30.000    49.1060   -20.0773   -29.9566   120.0962    -0.1480    -3.0001   -47.5501     0.0000   240.0000     0.0000     1.0000   300.0000   300.0000   -48.1614    57.3529    -1.9790    -1.4485    20.0000    20.0000    10.0000    20.0000    26.0000    10.0000    16.0000    20.0000    -0.0005     0.0005   159.4164   -41.1662     3.1320    27.1999    14.7000     2.0000     1.0000   300.0140     0.000
     32     2.0001    -0.1500    -0.0001    12.2503     26.830     88.000 194311.000     30.000    49.3332   -20.0773   -30.0982   120.0962    -0.1480    -3.0001   -47.3151     0.0000   240.0000     0.0000     1.0000   300.0000   300.0000   -48.3300    57.6113    -1.9790    -1.4485    20.0000    20.0000    10.0000    20.0000    26.0000    10.0000    16.0000    20.0000    -0.0005     0.0005   159.4164   -41.1662     3.1320    26.9504    14.7000     2.0000     1.0000   300.0050     0.000
     33     1.9999    -0.1500    -0.0001    11.9996     27.072     88.000 194311.000     30.000    49.5636   -20.0773   -30.2426   120.0962    -0.1480    -3.0001   -47.0791     0.0000   240.0000     0.0000     1.0000   300.0000   300.0000   -48.4986    57.8653    -1.9790    -1.4485    20.0000    20.0000    10.0000    20.0000    26.0000    10.0000    16.0000    20.0000    -0.0005     0.0005   159.4164   -41.1662     3.1318    26.6996    14.7000     2.0000     1.0000   300.0100     0.000
     34     2.0000    -0.1500    -0.0001    11.7500     27.108     96.000 194311.000     30.000    49.7973   -20.0773   -30.3884   120.0962    -0.1480    -3.0001   -46.8422     0.0000   240.0000     0.0000     1.0000   300.0000   300.0000   -48.6668    58.1275    -1.9790    -1.4485    20.0000    20.0000    10.0000    20.0000    26.0000    10.0000    16.0000    20.0000    -0.0005     0.0005   159.4164   -41.1662     3.1320    26.4500    14.7000     2.0000     1.0000   300.0210     0.000
     35     2.0000    -0.1500    -0.0001    11.5001     26.978    103.000 194311.000     30.000    50.0343   -20.0773   -30.5364   120.0962    -0.1480    -3.0001   -46.6044     0.0000   240.0000     0.0000     1.0000   300.0000   300.0000   -48.8354    58.3869    -1.9790    -1.4485    20.0000    20.0000    10.0000    20.0000    26.0000    10.0000    16.0000    20.0000    -0.0005     0.0005   159.4164   -41.1662     3.1320    26.2001    14.7000     2.0000     1.0000   300.0040     0.000
     36     2.0000    -0.1500    -0.0001    11.2501     26.801     98.000 194311.000     30.000    50.2748   -20.0773   -30.6868   120.0962    -0.1480    -3.0001   -46.3655     0.0000   240.0000     0.0000     1.0000   300.0000   300.0000   -49.0036    58.6452    -1.9790    -1.4485    20.0000    20.0000    10.0000    20.0000    26.0000    10.0000    16.0000    20.0000    -0.0005     0.0005   159.4164   -41.1662     3.1319    25.9501    14.7000     2.0000     1.0000   299.9970     0.000
     37     2.0000    -0.1500    -0.0001    11.0000     26.556     93.000 194311.000     30.000    50.5187   -20.0773   -30.8395   120.0962    -0.1480    -3.0001   -46.1257     0.0000   240.0000     0.0000     1.0000   300.0000   300.0000   -49.1715    58.9090    -1.9790    -1.4485    20.0000    20.0000    10.0000    20.0000    26.0000    10.0000    16.0000    20.0000    -0.0005     0.0005   159.4164   -41.1662     3.1319    25.7000    14.7000     2.0000     1.0000   299.9920     0.000
