# scan = 52
# date = 9/5/2024
# time = 8:05:41 AM
# proposal = 32905
# experiment = Effects of electric field on phonon dispersion and lifetimes of poled PMN-30PT
# experiment_number = 812
# command = scan h 1.5 k 0.3 l 0 e 15 0 0.25 preset mcu 30
# builtin_command = scan h 1.5 k 0.3 l 0 e 15 0 0.25 preset mcu 30
# users = George Yumnam, Michael Manley, Puspa Upreti, Raphael Hermann, SHAOFEI WANG
# local_contact = Songxue Chi
# scan_title = h1.5 k0.3 l0 scans
# monochromator = PG002
# analyzer = Pg002
# sense = -+-
# collimation = 48-40-40-120
# samplename = PMN-30PT
# sampletype = crystal
# samplemosaic = 30.000000
# latticeconstants = 4.023634,4.023634,4.023634,90.000000,90.000000,90.000000
# ubmatrix = -0.008055,-0.248252,-0.008588,-0.248328,0.007840,0.006285,-0.006007,0.008785,-0.248304
# mode = 0
# plane_normal = 0.034555,-0.025290,0.999083
# ubconf = UB04Sep2024_115522AM.ini
# preset_type = normal
# preset_channel = mcu
# preset_value = 30.000000
# def_x = e
# def_y = detector
# col_headers =
#   Pt.          h          k          l          e       time   detector    monitor        mcu focal_length         m1         m2   mcrystal       marc     mtrans     mfocus       ampl         dc       freq     output       temp     temp_2         s1         s2        sgl        sgu        bbb        bbl        bbr        bbt        bab        bal        bar        bat        stl        stu         a1         a2          q         ei         ef   ampl_out output_state        vti     sample
      1     1.5000     0.2999    -0.0000    15.0017     27.748     30.000 194311.000     30.000    46.9938   -20.0773   -28.6390   120.0962    -0.1480    -3.0001   -49.8518     0.0000     0.0000     0.0000     1.0000   300.0000   300.0000   -31.1301    38.7790    -1.9790    -1.4485    20.0000    20.0000    10.0000    20.0000    26.0000    10.0000    16.0000    20.0000    -0.0005     0.0005   159.4164   -41.1662     2.3887    29.7017    14.7000     2.0000     1.0000   300.0330     0.000
      2     1.5000     0.3000    -0.0000    14.7496     27.525     34.000 194311.000     30.000    47.1929   -20.0773   -28.7640   120.0962    -0.1480    -3.0001   -49.6254     0.0000     0.0000     0.0000     1.0000   300.0000   300.0000   -31.4306    39.0287    -1.9790    -1.4485    20.0000    20.0000    10.0000    20.0000    26.0000    10.0000    16.0000    20.0000    -0.0005     0.0005   159.4164   -41.1662     2.3887    29.4496    14.7000     2.0000     1.0000   300.0220     0.000
      3     1.5000     0.3000    -0.0000    14.4997     26.972     27.000 194311.000     30.000    47.3944   -20.0773   -28.8894   120.0962    -0.1480    -3.0001   -49.3982     0.0000     0.0000     0.0000     1.0000   300.0000   300.0000   -31.7308    39.2745    -1.9790    -1.4485    20.0000    20.0000    10.0000    20.0000    26.0000    10.0000    16.0000    20.0000    -0.0005     0.0005   159.4164   -41.1662     2.3887    29.1997    14.7000     2.0000     1.0000   299.9240     0.000
      4     1.5001     0.3000    -0.0000    14.2506     26.577     24.000 194311.000     30.000    47.5986   -20.0773   -29.0161   120.0962    -0.1480    -3.0001   -49.1702     0.0000     0.0000     0.0000     1.0000   300.0000   300.0000   -32.0305    39.5229    -1.9790    -1.4485    20.0000    20.0000    10.0000    20.0000    26.0000    10.0000    16.0000    20.0000    -0.0005     0.0005   159.4164   -41.1662     2.3888    28.9507    14.7000     2.0000     1.0000   300.0080     0.000
      5     1.5000     0.3000    -0.0000    13.9995     26.138     24.000 194311.000     30.000    47.8055   -20.0773   -29.1456   120.0962    -0.1480    -3.0001   -48.9414     0.0000     0.0000     0.0000     1.0000   300.0000   300.0000   -32.3304    39.7676    -1.9790    -1.4485    20.0000    20.0000    10.0000    20.0000    26.0000    10.0000    16.0000    20.0000    -0.0005     0.0005   159.4164   -41.1662     2.3888    28.6995    14.7000     2.0000     1.0000   299.9410     0.000
      6     1.5000     0.3000    -0.0000    13.7502     25.886     25.000 194311.000     30.000    48.0151   -20.0773   -29.2759   120.0962    -0.1480    -3.0001   -48.7117     0.0000     0.0000     0.0000     1.0000   300.0000   300.0000   -32.6303    40.0133    -1.9790    -1.4485    20.0000    20.0000    10.0000    20.0000    26.0000    10.0000    16.0000    20.0000    -0.0005     0.0005   159.4164   -41.1662     2.3888    28.4502    14.7000     2.0000     1.0000   300.0190     0.000
      7     1.5000     0.3000    -0.0000    13.5003     25.764     14.000 194311.000     30.000    48.2274   -20.0773   -29.4082   120.0962    -0.1480    -3.0001   -48.4811     0.0000     0.0000     0.0000     1.0000   300.0000   300.0000   -32.9301    40.2558    -1.9790    -1.4485    20.0000    20.0000    10.0000    20.0000    26.0000    10.0000    16.0000    20.0000    -0.0005     0.0005   159.4164   -41.1662     2.3887    28.2003    14.7000     2.0000     1.0000   299.9460     0.000
      8     1.5000     0.3000    -0.0000    13.2496     25.748     26.000 194311.000     30.000    48.4427   -20.0773   -29.5428   120.0962    -0.1480    -3.0001   -48.2497     0.0000     0.0000     0.0000     1.0000   300.0000   300.0000   -33.2304    40.5003    -1.9790    -1.4485    20.0000    20.0000    10.0000    20.0000    26.0000    10.0000    16.0000    20.0000    -0.0005     0.0005   159.4164   -41.1662     2.3887    27.9496    14.7000     2.0000     1.0000   300.0090     0.000
      9     1.5000     0.3000    -0.0000    13.0000     25.876     27.000 194311.000     30.000    48.6608   -20.0773   -29.6786   120.0962    -0.1480    -3.0001   -48.0174     0.0000     0.0000     0.0000     1.0000   300.0000   300.0000   -33.5303    40.7458    -1.9790    -1.4485    20.0000    20.0000    10.0000    20.0000    26.0000    10.0000    16.0000    20.0000    -0.0005     0.0005   159.4164   -41.1662     2.3888    27.7000    14.7000     2.0000     1.0000   300.0180     0.000
     10     1.5001     0.3000    -0.0000    12.7499     26.261     16.000 194311.000     30.000    48.8819   -20.0773   -29.8167   120.0962    -0.1480    -3.0001   -47.7842     0.0000     0.0000     0.0000     1.0000   300.0000   300.0000   -33.8305    40.9907    -1.9790    -1.4485    20.0000    20.0000    10.0000    20.0000    26.0000    10.0000    16.0000    20.0000    -0.0005     0.0005   159.4164   -41.1662     2.3889    27.4499    14.7000     2.0000     1.0000   300.0090     0.000
     11     1.5000     0.3000    -0.0000    12.5000     26.712     17.000 194311.000     30.000    49.1060   -20.0773   -29.9565   120.0962    -0.1480    -3.0001   -47.5501     0.0000     0.0000     0.0000     1.0000   300.0000   300.0000   -34.1307    41.2312    -1.9790    -1.4485    20.0000    20.0000    10.0000    20.0000    26.0000    10.0000    16.0000    20.0000    -0.0005     0.0005   159.4164   -41.1662     2.3887    27.2000    14.7000     2.0000     1.0000   300.0240     0.000
     12     1.5000     0.3000    -0.0000    12.2504     26.924     22.000 194311.000     30.000    49.3332   -20.0773   -30.0982   120.0962    -0.1480    -3.0001   -47.3151     0.0000     0.0000     0.0000     1.0000   300.0000   300.0000   -34.4314    41.4733    -1.9790    -1.4485    20.0000    20.0000    10.0000    20.0000    26.0000    10.0000    16.0000    20.0000    -0.0005     0.0005   159.4164   -41.1662     2.3887    26.9504    14.7000     2.0000     1.0000   299.9960     0.000
     13     1.5000     0.3000    -0.0000    11.9996     27.208     12.000 194311.000     30.000    49.5636   -20.0773   -30.2426   120.0962    -0.1480    -3.0001   -47.0791     0.0000     0.0000     0.0000     1.0000   300.0000   300.0000   -34.7321    41.7170    -1.9790    -1.4485    20.0000    20.0000    10.0000    20.0000    26.0000    10.0000    16.0000    20.0000    -0.0005     0.0005   159.4164   -41.1662     2.3888    26.6996    14.7000     2.0000     1.0000   300.0140     0.000
     14     1.5000     0.3000    -0.0000    11.7500     27.326     25.000 194311.000     30.000    49.7973   -20.0773   -30.3884   120.0962    -0.1480    -3.0001   -46.8422     0.0000     0.0000     0.0000     1.0000   300.0000   300.0000   -35.0333    41.9590    -1.9790    -1.4485    20.0000    20.0000    10.0000    20.0000    26.0000    10.0000    16.0000    20.0000    -0.0005     0.0005   159.4164   -41.1662     2.3888    26.4500    14.7000     2.0000     1.0000   300.0090     0.000
     15     1.5000     0.3000    -0.0000    11.5002     27.025     22.000 194311.000     30.000    50.0343   -20.0773   -30.5364   120.0962    -0.1480    -3.0001   -46.6044     0.0000     0.0000     0.0000     1.0000   300.0000   300.0000   -35.3345    42.2015    -1.9790    -1.4485    20.0000    20.0000    10.0000    20.0000    26.0000    10.0000    16.0000    20.0000    -0.0005     0.0005   159.4164   -41.1662     2.3888    26.2002    14.7000     2.0000     1.0000   300.0030     0.000
     16     1.5000     0.3000    -0.0000    11.2500     26.976     22.000 194311.000     30.000    50.2748   -20.0773   -30.6869   120.0962    -0.1480    -3.0001   -46.3655     0.0000     0.0000     0.0000     1.0000   300.0000   300.0000   -35.6360    42.4432    -1.9790    -1.4485    20.0000    20.0000    10.0000    20.0000    26.0000    10.0000    16.0000    20.0000    -0.0005     0.0005   159.4164   -41.1662     2.3888    25.9500    14.7000     2.0000     1.0000   300.0090     0.000
     17     1.5000     0.3000    -0.0000    10.9999     26.781     16.000 194311.000     30.000    50.5187   -20.0773   -30.8395   120.0962    -0.1480    -3.0001   -46.1257     0.0000     0.0000     0.0000     1.0000   300.0000   300.0000   -35.9380    42.6828    -1.9790    -1.4485    20.0000    20.0000    10.0000    20.0000    26.0000    10.0000    16.0000    20.0000    -0.0005     0.0005   159.4164   -41.1662     2.3887    25.6999    14.7000     2.0000     1.0000   299.9990     0.000
     18     1.5000     0.3000    -0.0000    10.7502     26.536     23.000 194311.000     30.000    50.7662   -20.0773   -30.9942   120.0962    -0.1480    -3.0001   -45.8849     0.0000     0.0000     0.0000     1.0000   300.0000   300.0000   -36.2405    42.9261    -1.9790    -1.4485    20.0000    20.0000    10.0000    20.0000    26.0000    10.0000    16.0000    20.0000    -0.0005     0.0005   159.4164   -41.1662     2.3888    25.4502    14.7000     2.0000     1.0000   299.9450     0.000
     19     1.5001     0.3000    -0.0000    10.5002     26.539     18.000 194311.000     30.000    51.0174   -20.0773   -31.1514   120.0962    -0.1480    -3.0001   -45.6430     0.0000     0.0000     0.0000     1.0000   300.0000   300.0000   -36.5431    43.1676    -1.9790    -1.4485    20.0000    20.0000    10.0000    20.0000    26.0000    10.0000    16.0000    20.0000    -0.0005     0.0005   159.4164   -41.1662     2.3888    25.2003    14.7000     2.0000     1.0000   300.0040     0.000
     20     1.5001     0.3000    -0.0000    10.2503     26.545      9.000 194311.000     30.000    51.2724   -20.0773   -31.3110   120.0962    -0.1480    -3.0001   -45.4002     0.0000     0.0000     0.0000     1.0000   300.0000   300.0000   -36.8465    43.4082    -1.9790    -1.4485    20.0000    20.0000    10.0000    20.0000    26.0000    10.0000    16.0000    20.0000    -0.0005     0.0005   159.4164   -41.1662     2.3888    24.9504    14.7000     2.0000     1.0000   299.9350     0.000
     21     1.5000     0.3000    -0.0000     9.9999     26.698     20.000 194311.000     30.000    51.5312   -20.0773   -31.4734   120.0962    -0.1480    -3.0001   -45.1562     0.0000     0.0000     0.0000     1.0000   300.0000   300.0000   -37.1501    43.6470    -1.9790    -1.4485    20.0000    20.0000    10.0000    20.0000    26.0000    10.0000    16.0000    20.0000    -0.0005     0.0005   159.4164   -41.1662     2.3887    24.6999    14.7000     2.0000     1.0000   300.0170     0.000
     22     1.5000     0.3000    -0.0000     9.7498     27.222     21.000 194311.000     30.000    51.7940   -20.0773   -31.6382   120.0962    -0.1480    -3.0001   -44.9112     0.0000     0.0000     0.0000     1.0000   300.0000   300.0000   -37.4546    43.8875    -1.9790    -1.4485    20.0000    20.0000    10.0000    20.0000    26.0000    10.0000    16.0000    20.0000    -0.0005     0.0005   159.4164   -41.1662     2.3887    24.4498    14.7000     2.0000     1.0000   299.9830     0.000
     23     1.5000     0.3000    -0.0000     9.4998     27.532     13.000 194311.000     30.000    52.0609   -20.0773   -31.8055   120.0962    -0.1480    -3.0001   -44.6652     0.0000     0.0000     0.0000     1.0000   300.0000   300.0000   -37.7593    44.1296    -1.9790    -1.4485    20.0000    20.0000    10.0000    20.0000    26.0000    10.0000    16.0000    20.0000    -0.0005     0.0005   159.4164   -41.1662     2.3888    24.1998    14.7000     2.0000     1.0000   300.0060     0.000
     24     1.5001     0.3000    -0.0000     9.2504     27.795     18.000 194311.000     30.000    52.3319   -20.0773   -31.9751   120.0962    -0.1480    -3.0001   -44.4180     0.0000     0.0000     0.0000     1.0000   300.0000   300.0000   -38.0645    44.3724    -1.9790    -1.4485    20.0000    20.0000    10.0000    20.0000    26.0000    10.0000    16.0000    20.0000    -0.0005     0.0005   159.4164   -41.1662     2.3889    23.9504    14.7000     2.0000     1.0000   300.0200     0.000
     25     1.5000     0.3000    -0.0000     8.9999     27.664     15.000 194311.000     30.000    52.6071   -20.0773   -32.1482   120.0962    -0.1480    -3.0001   -44.1697     0.0000     0.0000     0.0000     1.0000   300.0000   300.0000   -38.3706    44.6103    -1.9790    -1.4485    20.0000    20.0000    10.0000    20.0000    26.0000    10.0000    16.0000    20.0000    -0.0005     0.0005   159.4164   -41.1662     2.3888    23.6999    14.7000     2.0000     1.0000   299.9960     0.000
     26     1.5000     0.3000    -0.0000     8.7500     27.190     24.000 194311.000     30.000    52.8868   -20.0773   -32.3237   120.0962    -0.1480    -3.0001   -43.9203     0.0000     0.0000     0.0000     1.0000   300.0000   300.0000   -38.6773    44.8474    -1.9790    -1.4485    20.0000    20.0000    10.0000    20.0000    26.0000    10.0000    16.0000    20.0000    -0.0005     0.0005   159.4164   -41.1662     2.3887    23.4500    14.7000     2.0000     1.0000   300.0220     0.000
     27     1.5000     0.3000    -0.0000     8.5001     26.351     30.000 194311.000     30.000    53.1710   -20.0773   -32.5021   120.0962    -0.1480    -3.0001   -43.6697     0.0000     0.0000     0.0000     1.0000   300.0000   300.0000   -38.9846    45.0881    -1.9790    -1.4485    20.0000    20.0000    10.0000    20.0000    26.0000    10.0000    16.0000    20.0000    -0.0005     0.0005   159.4164   -41.1662     2.3887    23.2001    14.7000     2.0000     1.0000   299.9920     0.000
     28     1.5000     0.3000    -0.0000     8.2498     25.578     28.000 194311.000     30.000    53.4598   -20.0773   -32.6838   120.0962    -0.1480    -3.0001   -43.4180     0.0000     0.0000     0.0000     1.0000   300.0000   300.0000   -39.2931    45.3290    -1.9790    -1.4485    20.0000    20.0000    10.0000    20.0000    26.0000    10.0000    16.0000    20.0000    -0.0005     0.0005   159.4164   -41.1662     2.3888    22.9498    14.7000     2.0000     1.0000   300.0220     0.000
     29     1.5001     0.3000    -0.0000     8.0000     24.776     19.000 194311.000     30.000    53.7534   -20.0773   -32.8682   120.0962    -0.1480    -3.0001   -43.1651     0.0000     0.0000     0.0000     1.0000   300.0000   300.0000   -39.6018    45.5702    -1.9790    -1.4485    20.0000    20.0000    10.0000    20.0000    26.0000    10.0000    16.0000    20.0000    -0.0005     0.0005   159.4164   -41.1662     2.3888    22.7000    14.7000     2.0000     1.0000   299.9980     0.000
     30     1.5000     0.3000    -0.0000     7.7501     24.262     22.000 194311.000     30.000    54.0519   -20.0773   -33.0559   120.0962    -0.1480    -3.0001   -42.9109     0.0000     0.0000     0.0000     1.0000   300.0000   300.0000   -39.9116    45.8084    -1.9790    -1.4485    20.0000    20.0000    10.0000    20.0000    26.0000    10.0000    16.0000    20.0000    -0.0005     0.0005   159.4164   -41.1662     2.3888    22.4501    14.7000     2.0000     1.0000   300.0040     0.000
     31     1.5000     0.3000    -0.0000     7.5000     24.206     20.000 194311.000     30.000    54.3554   -20.0773   -33.2470   120.0962    -0.1480    -3.0001   -42.6556     0.0000     0.0000     0.0000     1.0000   300.0000   300.0000   -40.2219    46.0479    -1.9790    -1.4485    20.0000    20.0000    10.0000    20.0000    26.0000    10.0000    16.0000    20.0000    -0.0005     0.0005   159.4164   -41.1662     2.3888    22.2000    14.7000     2.0000     1.0000   300.0050     0.000
     32     1.5000     0.3000    -0.0000     7.2502     24.062     28.000 194311.000     30.000    54.6640   -20.0773   -33.4411   120.0962    -0.1480    -3.0001   -42.3989     0.0000     0.0000     0.0000     1.0000   300.0000   300.0000   -40.5339    46.2867    -1.9790    -1.4485    20.0000    20.0000    10.0000    20.0000    26.0000    10.0000    16.0000    20.0000    -0.0005     0.0005   159.4164   -41.1662     2.3887    21.9502    14.7000     2.0000     1.0000   300.0140     0.000
     33     1.5000     0.3000    -0.0000     6.9998     24.050     17.000 194311.000     30.000    54.9780   -20.0773   -33.6392   120.0962    -0.1480    -3.0001   -42.1410     0.0000     0.0000     0.0000     1.0000   300.0000   300.0000   -40.8456    46.5281    -1.9790    -1.4485    20.0000    20.0000    10.0000    20.0000    26.0000    10.0000    16.0000    20.0000    -0.0005     0.0005   159.4164   -41.1662     2.3888    21.6998    14.7000     2.0000     1.0000   300.0140     0.000
     34     1.5000     0.3000    -0.0000     6.7501     24.219     17.000 194311.000     30.000    55.2975   -20.0773   -33.8403   120.0962    -0.1480    -3.0001   -41.8818     0.0000     0.0000     0.0000     1.0000   300.0000   300.0000   -41.1596    46.7676    -1.9790    -1.4485    20.0000    20.0000    10.0000    20.0000    26.0000    10.0000    16.0000    20.0000    -0.0005     0.0005   159.4164   -41.1662     2.3888    21.4501    14.7000     2.0000     1.0000   300.0170     0.000
     35     1.5001     0.3000    -0.0000     6.4999     24.355     15.000 194311.000     30.000    55.6225   -20.0773   -34.0454   120.0962    -0.1480    -3.0001   -41.6214     0.0000     0.0000     0.0000     1.0000   300.0000   300.0000   -41.4740    47.0082    -1.9790    -1.4485    20.0000    20.0000    10.0000    20.0000    26.0000    10.0000    16.0000    20.0000    -0.0005     0.0005   159.4164   -41.1662     2.3888    21.1999    14.7000     2.0000     1.0000   300.0050     0.000
     36     1.5000     0.3000    -0.0000     6.2500     24.705     20.000 194311.000     30.000    55.9535   -20.0773   -34.2541   120.0962    -0.1480    -3.0001   -41.3595     0.0000     0.0000     0.0000     1.0000   300.0000   300.0000   -41.7891    47.2462    -1.9790    -1.4485    20.0000    20.0000    10.0000    20.0000    26.0000    10.0000    16.0000    20.0000    -0.0005     0.0005   159.4164   -41.1662     2.3888    20.9500    14.7000     2.0000     1.0000   300.0310     0.000
     37     1.5000     0.3000    -0.0000     6.0002     24.982     17.000 194311.000     30.000    56.2903   -20.0773   -34.4667   120.0962    -0.1480    -3.0001   -41.0963     0.0000     0.0000     0.0000     1.0000   300.0000   300.0000   -42.1058    47.4851    -1.9790    -1.4485    20.0000    20.0000    10.0000    20.0000    26.0000    10.0000    16.0000    20.0000    -0.0005     0.0005   159.4164   -41.1662     2.3887    20.7002    14.7000     2.0000     1.0000   299.9890     0.000
