# scan = 200
# date = 9/9/2024
# time = 3:19:23 AM
# proposal = 32905
# experiment = Effects of electric field on phonon dispersion and lifetimes of poled PMN-30PT
# experiment_number = 812
# command = scan h 2 k 0 l 0 e 20 0.5 0.25 preset mcu 30
# builtin_command = scan h 2 k 0 l 0 e 20 0.5 0.25 preset mcu 30
# users = George Yumnam, Michael Manley, Puspa Upreti, Raphael Hermann, SHAOFEI WANG
# local_contact = Songxue Chi
# scan_title = (2,0,0) G to X transverse mode scan at 0V ramping down
# monochromator = PG002
# analyzer = Pg002
# sense = -+-
# collimation = 48-40-40-120
# samplename = PMN-30PT
# sampletype = crystal
# samplemosaic = 30.000000
# latticeconstants = 4.023634,4.023634,4.023634,90.000000,90.000000,90.000000
# ubmatrix = -0.008055,-0.248252,-0.008588,-0.248328,0.007840,0.006285,-0.006007,0.008785,-0.248304
# mode = 0
# plane_normal = 0.034555,-0.025290,0.999083
# ubconf = UB04Sep2024_115522AM.ini
# preset_type = normal
# preset_channel = mcu
# preset_value = 30.000000
# def_x = e
# def_y = detector
# col_headers =
#   Pt.          h          k          l          e       time   detector    monitor        mcu focal_length         m1         m2   mcrystal       marc     mtrans     mfocus       ampl         dc       freq     output       temp     temp_2         s1         s2        sgl        sgu        bbb        bbl        bbr        bbt        bab        bal        bar        bat        stl        stu         a1         a2          q         ei         ef   ampl_out output_state        vti     sample
      1     2.0001    -0.0001    -0.0001    20.0031     25.230     34.000 194311.000     30.000    43.4765   -20.0773   -26.4544   120.0962    -0.1480    -3.0001   -54.2224     0.0000     0.0000     0.0000     1.0000   300.0000   300.0000   -38.7478    49.7444    -1.9790    -1.4485    20.0000    20.0000    10.0000    20.0000    26.0000    10.0000    16.0000    20.0000    -0.0005     0.0005   159.4164   -41.1662     3.1232    34.7031    14.7000     2.0000     1.0000   300.0330     0.000
      2     2.0000     0.0000    -0.0001    19.7498     25.051     32.000 194311.000     30.000    43.6339   -20.0773   -26.5533   120.0962    -0.1480    -3.0001   -54.0105     0.0000     0.0000     0.0000     1.0000   300.0000   300.0000   -38.9224    49.9879    -1.9790    -1.4485    20.0000    20.0000    10.0000    20.0000    26.0000    10.0000    16.0000    20.0000    -0.0005     0.0005   159.4164   -41.1662     3.1232    34.4498    14.7000     2.0000     1.0000   300.0220     0.000
      3     2.0000     0.0000    -0.0001    19.4998     25.072     23.000 194311.000     30.000    43.7931   -20.0773   -26.6519   120.0962    -0.1480    -3.0001   -53.7978     0.0000     0.0000     0.0000     1.0000   300.0000   300.0000   -39.0970    50.2265    -1.9790    -1.4485    20.0000    20.0000    10.0000    20.0000    26.0000    10.0000    16.0000    20.0000    -0.0005     0.0005   159.4164   -41.1662     3.1231    34.1998    14.7000     2.0000     1.0000   300.0210     0.000
      4     1.9999     0.0000    -0.0001    19.2499     25.294     29.000 194311.000     30.000    43.9541   -20.0773   -26.7516   120.0962    -0.1480    -3.0001   -53.5845     0.0000     0.0000     0.0000     1.0000   300.0000   300.0000   -39.2711    50.4670    -1.9790    -1.4485    20.0000    20.0000    10.0000    20.0000    26.0000    10.0000    16.0000    20.0000    -0.0005     0.0005   159.4164   -41.1662     3.1231    33.9499    14.7000     2.0000     1.0000   300.0030     0.000
      5     2.0001    -0.0000    -0.0001    19.0006     25.314     30.000 194311.000     30.000    44.1168   -20.0773   -26.8523   120.0962    -0.1480    -3.0001   -53.3706     0.0000     0.0000     0.0000     1.0000   300.0000   300.0000   -39.4447    50.7119    -1.9790    -1.4485    20.0000    20.0000    10.0000    20.0000    26.0000    10.0000    16.0000    20.0000    -0.0005     0.0005   159.4164   -41.1662     3.1232    33.7006    14.7000     2.0000     1.0000   299.9850     0.000
      6     2.0000     0.0000    -0.0001    18.7493     25.534     33.000 194311.000     30.000    44.2813   -20.0773   -26.9549   120.0962    -0.1480    -3.0001   -53.1560     0.0000     0.0000     0.0000     1.0000   300.0000   300.0000   -39.6191    50.9548    -1.9790    -1.4485    20.0000    20.0000    10.0000    20.0000    26.0000    10.0000    16.0000    20.0000    -0.0005     0.0005   159.4164   -41.1662     3.1232    33.4493    14.7000     2.0000     1.0000   300.0030     0.000
      7     2.0001     0.0000    -0.0001    18.5001     25.653     25.000 194311.000     30.000    44.4478   -20.0773   -27.0577   120.0962    -0.1480    -3.0001   -52.9407     0.0000     0.0000     0.0000     1.0000   300.0000   300.0000   -39.7923    51.1970    -1.9790    -1.4485    20.0000    20.0000    10.0000    20.0000    26.0000    10.0000    16.0000    20.0000    -0.0005     0.0005   159.4164   -41.1662     3.1232    33.2001    14.7000     2.0000     1.0000   300.0110     0.000
      8     2.0000    -0.0000    -0.0001    18.2502     25.783     38.000 194311.000     30.000    44.6161   -20.0773   -27.1621   120.0962    -0.1480    -3.0001   -52.7248     0.0000     0.0000     0.0000     1.0000   300.0000   300.0000   -39.9657    51.4373    -1.9790    -1.4485    20.0000    20.0000    10.0000    20.0000    26.0000    10.0000    16.0000    20.0000    -0.0005     0.0005   159.4164   -41.1662     3.1231    32.9502    14.7000     2.0000     1.0000   300.0080     0.000
      9     2.0000     0.0000    -0.0001    17.9998     25.985     27.000 194311.000     30.000    44.7863   -20.0773   -27.2679   120.0962    -0.1480    -3.0001   -52.5081     0.0000     0.0000     0.0000     1.0000   300.0000   300.0000   -40.1391    51.6804    -1.9790    -1.4485    20.0000    20.0000    10.0000    20.0000    26.0000    10.0000    16.0000    20.0000    -0.0005     0.0005   159.4164   -41.1662     3.1231    32.6998    14.7000     2.0000     1.0000   299.9960     0.000
     10     2.0001    -0.0000    -0.0001    17.7505     26.141     26.000 194311.000     30.000    44.9585   -20.0773   -27.3745   120.0962    -0.1480    -3.0001   -52.2908     0.0000     0.0000     0.0000     1.0000   300.0000   300.0000   -40.3119    51.9275    -1.9790    -1.4485    20.0000    20.0000    10.0000    20.0000    26.0000    10.0000    16.0000    20.0000    -0.0005     0.0005   159.4164   -41.1662     3.1233    32.4505    14.7000     2.0000     1.0000   299.9430     0.000
     11     2.0001     0.0000    -0.0001    17.4997     26.287     32.000 194311.000     30.000    45.1326   -20.0773   -27.4829   120.0962    -0.1480    -3.0001   -52.0728     0.0000     0.0000     0.0000     1.0000   300.0000   300.0000   -40.4846    52.1708    -1.9790    -1.4485    20.0000    20.0000    10.0000    20.0000    26.0000    10.0000    16.0000    20.0000    -0.0005     0.0005   159.4164   -41.1662     3.1233    32.1997    14.7000     2.0000     1.0000   300.0150     0.000
     12     2.0001    -0.0000    -0.0001    17.2499     26.357     29.000 194311.000     30.000    45.3089   -20.0773   -27.5923   120.0962    -0.1480    -3.0001   -51.8540     0.0000     0.0000     0.0000     1.0000   300.0000   300.0000   -40.6575    52.4143    -1.9790    -1.4485    20.0000    20.0000    10.0000    20.0000    26.0000    10.0000    16.0000    20.0000    -0.0005     0.0005   159.4164   -41.1662     3.1232    31.9499    14.7000     2.0000     1.0000   299.9810     0.000
     13     2.0000    -0.0000    -0.0001    17.0001     26.497     27.000 194311.000     30.000    45.4872   -20.0773   -27.7029   120.0962    -0.1480    -3.0001   -51.6345     0.0000     0.0000     0.0000     1.0000   300.0000   300.0000   -40.8300    52.6570    -1.9790    -1.4485    20.0000    20.0000    10.0000    20.0000    26.0000    10.0000    16.0000    20.0000    -0.0005     0.0005   159.4164   -41.1662     3.1231    31.7001    14.7000     2.0000     1.0000   299.9790     0.000
     14     2.0000     0.0000    -0.0001    16.7497     26.462     29.000 194311.000     30.000    45.6676   -20.0773   -27.8152   120.0962    -0.1480    -3.0001   -51.4143     0.0000     0.0000     0.0000     1.0000   300.0000   300.0000   -41.0021    52.9027    -1.9790    -1.4485    20.0000    20.0000    10.0000    20.0000    26.0000    10.0000    16.0000    20.0000    -0.0005     0.0005   159.4164   -41.1662     3.1232    31.4497    14.7000     2.0000     1.0000   300.0110     0.000
     15     2.0000    -0.0000    -0.0001    16.5001     26.570     18.000 194311.000     30.000    45.8503   -20.0773   -27.9285   120.0962    -0.1480    -3.0001   -51.1934     0.0000     0.0000     0.0000     1.0000   300.0000   300.0000   -41.1744    53.1485    -1.9790    -1.4485    20.0000    20.0000    10.0000    20.0000    26.0000    10.0000    16.0000    20.0000    -0.0005     0.0005   159.4164   -41.1662     3.1232    31.2001    14.7000     2.0000     1.0000   299.9970     0.000
     16     2.0001    -0.0000    -0.0001    16.2499     26.573     27.000 194311.000     30.000    46.0351   -20.0773   -28.0435   120.0962    -0.1480    -3.0001   -50.9717     0.0000     0.0000     0.0000     1.0000   300.0000   300.0000   -41.3462    53.3972    -1.9790    -1.4485    20.0000    20.0000    10.0000    20.0000    26.0000    10.0000    16.0000    20.0000    -0.0005     0.0005   159.4164   -41.1662     3.1233    30.9499    14.7000     2.0000     1.0000   300.0100     0.000
     17     2.0000     0.0000    -0.0001    15.9996     26.687     29.000 194311.000     30.000    46.2221   -20.0773   -28.1599   120.0962    -0.1480    -3.0001   -50.7492     0.0000     0.0000     0.0000     1.0000   300.0000   300.0000   -41.5181    53.6414    -1.9790    -1.4485    20.0000    20.0000    10.0000    20.0000    26.0000    10.0000    16.0000    20.0000    -0.0005     0.0005   159.4164   -41.1662     3.1232    30.6996    14.7000     2.0000     1.0000   300.0150     0.000
     18     2.0000    -0.0000    -0.0001    15.7507     26.725     25.000 194311.000     30.000    46.4115   -20.0773   -28.2772   120.0962    -0.1480    -3.0001   -50.5260     0.0000     0.0000     0.0000     1.0000   300.0000   300.0000   -41.6898    53.8871    -1.9790    -1.4485    20.0000    20.0000    10.0000    20.0000    26.0000    10.0000    16.0000    20.0000    -0.0005     0.0005   159.4164   -41.1662     3.1231    30.4507    14.7000     2.0000     1.0000   299.9870     0.000
     19     2.0000     0.0000    -0.0001    15.4997     26.885     34.000 194311.000     30.000    46.6032   -20.0773   -28.3969   120.0962    -0.1480    -3.0001   -50.3021     0.0000     0.0000     0.0000     1.0000   300.0000   300.0000   -41.8614    54.1367    -1.9790    -1.4485    20.0000    20.0000    10.0000    20.0000    26.0000    10.0000    16.0000    20.0000    -0.0005     0.0005   159.4164   -41.1662     3.1232    30.1997    14.7000     2.0000     1.0000   300.0070     0.000
     20     2.0001    -0.0000    -0.0001    15.2499     26.988     27.000 194311.000     30.000    46.7972   -20.0773   -28.5176   120.0962    -0.1480    -3.0001   -50.0773     0.0000     0.0000     0.0000     1.0000   300.0000   300.0000   -42.0326    54.3867    -1.9790    -1.4485    20.0000    20.0000    10.0000    20.0000    26.0000    10.0000    16.0000    20.0000    -0.0005     0.0005   159.4164   -41.1662     3.1233    29.9499    14.7000     2.0000     1.0000   299.9960     0.000
     21     2.0000    -0.0000    -0.0001    15.0003     27.044     37.000 194311.000     30.000    46.9938   -20.0773   -28.6397   120.0962    -0.1480    -3.0001   -49.8518     0.0000     0.0000     0.0000     1.0000   300.0000   300.0000   -42.2041    54.6332    -1.9790    -1.4485    20.0000    20.0000    10.0000    20.0000    26.0000    10.0000    16.0000    20.0000    -0.0005     0.0005   159.4164   -41.1662     3.1232    29.7003    14.7000     2.0000     1.0000   300.0210     0.000
     22     2.0000     0.0000    -0.0001    14.7496     27.087     34.000 194311.000     30.000    47.1929   -20.0773   -28.7640   120.0962    -0.1480    -3.0001   -49.6254     0.0000     0.0000     0.0000     1.0000   300.0000   300.0000   -42.3749    54.8816    -1.9790    -1.4485    20.0000    20.0000    10.0000    20.0000    26.0000    10.0000    16.0000    20.0000    -0.0005     0.0005   159.4164   -41.1662     3.1231    29.4496    14.7000     2.0000     1.0000   300.0090     0.000
     23     2.0000    -0.0000    -0.0001    14.5001     26.662     25.000 194311.000     30.000    47.3944   -20.0773   -28.8892   120.0962    -0.1480    -3.0001   -49.3982     0.0000     0.0000     0.0000     1.0000   300.0000   300.0000   -42.5459    55.1334    -1.9790    -1.4485    20.0000    20.0000    10.0000    20.0000    26.0000    10.0000    16.0000    20.0000    -0.0005     0.0005   159.4164   -41.1662     3.1232    29.2001    14.7000     2.0000     1.0000   299.9980     0.000
     24     2.0001    -0.0000    -0.0001    14.2505     26.314     18.000 194311.000     30.000    47.5986   -20.0773   -29.0162   120.0962    -0.1480    -3.0001   -49.1702     0.0000     0.0000     0.0000     1.0000   300.0000   300.0000   -42.7169    55.3863    -1.9790    -1.4485    20.0000    20.0000    10.0000    20.0000    26.0000    10.0000    16.0000    20.0000    -0.0005     0.0005   159.4164   -41.1662     3.1233    28.9505    14.7000     2.0000     1.0000   299.9860     0.000
     25     2.0000     0.0000    -0.0001    13.9994     25.968     32.000 194311.000     30.000    47.8055   -20.0773   -29.1456   120.0962    -0.1480    -3.0001   -48.9414     0.0000     0.0000     0.0000     1.0000   300.0000   300.0000   -42.8874    55.6348    -1.9790    -1.4485    20.0000    20.0000    10.0000    20.0000    26.0000    10.0000    16.0000    20.0000    -0.0005     0.0005   159.4164   -41.1662     3.1231    28.6995    14.7000     2.0000     1.0000   300.0120     0.000
     26     2.0000    -0.0000    -0.0001    13.7503     25.660     34.000 194311.000     30.000    48.0151   -20.0773   -29.2758   120.0962    -0.1480    -3.0001   -48.7117     0.0000     0.0000     0.0000     1.0000   300.0000   300.0000   -43.0583    55.8859    -1.9790    -1.4485    20.0000    20.0000    10.0000    20.0000    26.0000    10.0000    16.0000    20.0000    -0.0005     0.0005   159.4164   -41.1662     3.1231    28.4503    14.7000     2.0000     1.0000   299.9740     0.000
     27     2.0000    -0.0000    -0.0001    13.5004     25.309     46.000 194311.000     30.000    48.2274   -20.0773   -29.4082   120.0962    -0.1480    -3.0001   -48.4811     0.0000     0.0000     0.0000     1.0000   300.0000   300.0000   -43.2286    56.1403    -1.9790    -1.4485    20.0000    20.0000    10.0000    20.0000    26.0000    10.0000    16.0000    20.0000    -0.0005     0.0005   159.4164   -41.1662     3.1232    28.2004    14.7000     2.0000     1.0000   300.0130     0.000
     28     2.0001    -0.0000    -0.0001    13.2496     25.434     41.000 194311.000     30.000    48.4427   -20.0773   -29.5428   120.0962    -0.1480    -3.0001   -48.2497     0.0000     0.0000     0.0000     1.0000   300.0000   300.0000   -43.3990    56.3964    -1.9790    -1.4485    20.0000    20.0000    10.0000    20.0000    26.0000    10.0000    16.0000    20.0000    -0.0005     0.0005   159.4164   -41.1662     3.1233    27.9496    14.7000     2.0000     1.0000   300.0040     0.000
     29     2.0000     0.0000    -0.0001    13.0000     25.515     39.000 194311.000     30.000    48.6608   -20.0773   -29.6786   120.0962    -0.1480    -3.0001   -48.0174     0.0000     0.0000     0.0000     1.0000   300.0000   300.0000   -43.5691    56.6464    -1.9790    -1.4485    20.0000    20.0000    10.0000    20.0000    26.0000    10.0000    16.0000    20.0000    -0.0005     0.0005   159.4164   -41.1662     3.1231    27.7000    14.7000     2.0000     1.0000   300.0120     0.000
     30     2.0000     0.0000    -0.0001    12.7500     25.893     60.000 194311.000     30.000    48.8819   -20.0773   -29.8166   120.0962    -0.1480    -3.0001   -47.7842     0.0000     0.0000     0.0000     1.0000   300.0000   300.0000   -43.7392    56.9029    -1.9790    -1.4485    20.0000    20.0000    10.0000    20.0000    26.0000    10.0000    16.0000    20.0000    -0.0005     0.0005   159.4164   -41.1662     3.1232    27.4500    14.7000     2.0000     1.0000   300.0170     0.000
     31     2.0000     0.0000    -0.0001    12.4999     26.281     47.000 194311.000     30.000    49.1060   -20.0773   -29.9566   120.0962    -0.1480    -3.0001   -47.5501     0.0000     0.0000     0.0000     1.0000   300.0000   300.0000   -43.9091    57.1590    -1.9790    -1.4485    20.0000    20.0000    10.0000    20.0000    26.0000    10.0000    16.0000    20.0000    -0.0005     0.0005   159.4164   -41.1662     3.1232    27.1999    14.7000     2.0000     1.0000   299.9470     0.000
     32     2.0001    -0.0000    -0.0001    12.2503     26.663     46.000 194311.000     30.000    49.3332   -20.0773   -30.0982   120.0962    -0.1480    -3.0001   -47.3151     0.0000     0.0000     0.0000     1.0000   300.0000   300.0000   -44.0794    57.4166    -1.9790    -1.4485    20.0000    20.0000    10.0000    20.0000    26.0000    10.0000    16.0000    20.0000    -0.0005     0.0005   159.4164   -41.1662     3.1232    26.9504    14.7000     2.0000     1.0000   299.9970     0.000
     33     2.0000     0.0000    -0.0001    11.9999     26.773     48.000 194311.000     30.000    49.5636   -20.0773   -30.2424   120.0962    -0.1480    -3.0001   -47.0791     0.0000     0.0000     0.0000     1.0000   300.0000   300.0000   -44.2490    57.6727    -1.9790    -1.4485    20.0000    20.0000    10.0000    20.0000    26.0000    10.0000    16.0000    20.0000    -0.0005     0.0005   159.4164   -41.1662     3.1231    26.6999    14.7000     2.0000     1.0000   300.0070     0.000
     34     2.0000    -0.0000    -0.0001    11.7501     26.867     42.000 194311.000     30.000    49.7973   -20.0773   -30.3883   120.0962    -0.1480    -3.0001   -46.8422     0.0000     0.0000     0.0000     1.0000   300.0000   300.0000   -44.4188    57.9324    -1.9790    -1.4485    20.0000    20.0000    10.0000    20.0000    26.0000    10.0000    16.0000    20.0000    -0.0005     0.0005   159.4164   -41.1662     3.1232    26.4501    14.7000     2.0000     1.0000   299.9970     0.000
     35     2.0001    -0.0000    -0.0001    11.5003     26.893     56.000 194311.000     30.000    50.0343   -20.0773   -30.5363   120.0962    -0.1480    -3.0001   -46.6044     0.0000     0.0000     0.0000     1.0000   300.0000   300.0000   -44.5881    58.1932    -1.9790    -1.4485    20.0000    20.0000    10.0000    20.0000    26.0000    10.0000    16.0000    20.0000    -0.0005     0.0005   159.4164   -41.1662     3.1233    26.2003    14.7000     2.0000     1.0000   300.0110     0.000
     36     2.0000     0.0000    -0.0001    11.2501     26.607     64.000 194311.000     30.000    50.2748   -20.0773   -30.6868   120.0962    -0.1480    -3.0001   -46.3655     0.0000     0.0000     0.0000     1.0000   300.0000   300.0000   -44.7578    58.4509    -1.9790    -1.4485    20.0000    20.0000    10.0000    20.0000    26.0000    10.0000    16.0000    20.0000    -0.0005     0.0005   159.4164   -41.1662     3.1231    25.9501    14.7000     2.0000     1.0000   300.0160     0.000
     37     2.0000    -0.0000    -0.0001    10.9999     26.427     68.000 194311.000     30.000    50.5187   -20.0773   -30.8395   120.0962    -0.1480    -3.0001   -46.1257     0.0000     0.0000     0.0000     1.0000   300.0000   300.0000   -44.9273    58.7133    -1.9790    -1.4485    20.0000    20.0000    10.0000    20.0000    26.0000    10.0000    16.0000    20.0000    -0.0005     0.0005   159.4164   -41.1662     3.1232    25.6999    14.7000     2.0000     1.0000   300.0020     0.000
