# scan = 24
# date = 9/4/2024
# time = 3:01:45 PM
# proposal = 32905
# experiment = Effects of electric field on phonon dispersion and lifetimes of poled PMN-30PT
# experiment_number = 812
# command = scan h 2 k -0.2 l 0 e 20 0 0.25 preset mcu 30
# builtin_command = scan h 2 k -0.2 l 0 e 20 0 0.25 preset mcu 30
# users = George Yumnam, Michael Manley, Puspa Upreti, Raphael Hermann, SHAOFEI WANG
# local_contact = Songxue Chi
# scan_title = 2k0 scans
# monochromator = PG002
# analyzer = Pg002
# sense = -+-
# collimation = 48-40-40-120
# samplename = PMN-30PT
# sampletype = crystal
# samplemosaic = 30.000000
# latticeconstants = 4.023634,4.023634,4.023634,90.000000,90.000000,90.000000
# ubmatrix = -0.008055,-0.248252,-0.008588,-0.248328,0.007840,0.006285,-0.006007,0.008785,-0.248304
# mode = 0
# plane_normal = 0.034555,-0.025290,0.999083
# ubconf = UB04Sep2024_115522AM.ini
# preset_type = normal
# preset_channel = mcu
# preset_value = 30.000000
# def_x = e
# def_y = detector
# col_headers =
#   Pt.          h          k          l          e       time   detector    monitor        mcu focal_length         m1         m2   mcrystal       marc     mtrans     mfocus       ampl         dc       freq     output       temp     temp_2         s1         s2        sgl        sgu        bbb        bbl        bbr        bbt        bab        bal        bar        bat        stl        stu         a1         a2          q         ei         ef   ampl_out output_state        vti     sample
      1     2.0000    -0.2000    -0.0000    20.0021     25.512     44.000 194311.000     30.000    43.4765   -20.0773   -26.4548   120.0962    -0.1480    -3.0001   -54.2224     0.0000     0.0000     0.0000     1.0000   300.0000   300.0000   -44.4556    50.0777    -1.9790    -1.4500    20.0000    20.0000    10.0000    20.0000    26.0000    10.0000    16.0000    20.0000    -0.0005     0.0005   159.4164   -41.1662     3.1387    34.7021    14.7000     2.0000     1.0000   300.0630     0.000
      2     2.0000    -0.2000    -0.0000    19.7498     25.326     41.000 194311.000     30.000    43.6339   -20.0773   -26.5533   120.0962    -0.1480    -3.0001   -54.0105     0.0000     0.0000     0.0000     1.0000   300.0000   300.0000   -44.6279    50.3216    -1.9790    -1.4500    20.0000    20.0000    10.0000    20.0000    26.0000    10.0000    16.0000    20.0000    -0.0005     0.0005   159.4164   -41.1662     3.1387    34.4498    14.7000     2.0000     1.0000   300.0240     0.000
      3     2.0000    -0.2000    -0.0000    19.4998     25.394     27.000 194311.000     30.000    43.7931   -20.0773   -26.6519   120.0962    -0.1480    -3.0001   -53.7978     0.0000     0.0000     0.0000     1.0000   300.0000   300.0000   -44.8010    50.5625    -1.9790    -1.4500    20.0000    20.0000    10.0000    20.0000    26.0000    10.0000    16.0000    20.0000    -0.0005     0.0005   159.4164   -41.1662     3.1387    34.1998    14.7000     2.0000     1.0000   300.0200     0.000
      4     2.0001    -0.2000    -0.0000    19.2501     25.608     32.000 194311.000     30.000    43.9541   -20.0773   -26.7516   120.0962    -0.1480    -3.0001   -53.5845     0.0000     0.0000     0.0000     1.0000   300.0000   300.0000   -44.9727    50.8070    -1.9790    -1.4500    20.0000    20.0000    10.0000    20.0000    26.0000    10.0000    16.0000    20.0000    -0.0005     0.0005   159.4164   -41.1662     3.1389    33.9501    14.7000     2.0000     1.0000   300.0080     0.000
      5     2.0000    -0.2000    -0.0000    19.0003     25.669     30.000 194311.000     30.000    44.1168   -20.0773   -26.8524   120.0962    -0.1480    -3.0001   -53.3706     0.0000     0.0000     0.0000     1.0000   300.0000   300.0000   -45.1446    51.0438    -1.9790    -1.4500    20.0000    20.0000    10.0000    20.0000    26.0000    10.0000    16.0000    20.0000    -0.0005     0.0005   159.4164   -41.1662     3.1386    33.7003    14.7000     2.0000     1.0000   299.9880     0.000
      6     2.0000    -0.2000    -0.0000    18.7494     25.846     29.000 194311.000     30.000    44.2813   -20.0773   -26.9548   120.0962    -0.1480    -3.0001   -53.1560     0.0000     0.0000     0.0000     1.0000   300.0000   300.0000   -45.3167    51.2875    -1.9790    -1.4500    20.0000    20.0000    10.0000    20.0000    26.0000    10.0000    16.0000    20.0000    -0.0005     0.0005   159.4164   -41.1662     3.1387    33.4494    14.7000     2.0000     1.0000   299.9760     0.000
      7     2.0000    -0.2000    -0.0000    18.5002     26.095     25.000 194311.000     30.000    44.4478   -20.0773   -27.0577   120.0962    -0.1480    -3.0001   -52.9407     0.0000     0.0000     0.0000     1.0000   300.0000   300.0000   -45.4877    51.5306    -1.9790    -1.4500    20.0000    20.0000    10.0000    20.0000    26.0000    10.0000    16.0000    20.0000    -0.0005     0.0005   159.4164   -41.1662     3.1387    33.2002    14.7000     2.0000     1.0000   300.0160     0.000
      8     2.0000    -0.2000    -0.0000    18.2501     26.261     31.000 194311.000     30.000    44.6161   -20.0773   -27.1621   120.0962    -0.1480    -3.0001   -52.7248     0.0000     0.0000     0.0000     1.0000   300.0000   300.0000   -45.6595    51.7741    -1.9790    -1.4500    20.0000    20.0000    10.0000    20.0000    26.0000    10.0000    16.0000    20.0000    -0.0005     0.0005   159.4164   -41.1662     3.1388    32.9501    14.7000     2.0000     1.0000   300.0000     0.000
      9     2.0000    -0.2000    -0.0000    17.9999     26.499     33.000 194311.000     30.000    44.7863   -20.0773   -27.2678   120.0962    -0.1480    -3.0001   -52.5081     0.0000     0.0000     0.0000     1.0000   300.0000   300.0000   -45.8306    52.0174    -1.9790    -1.4500    20.0000    20.0000    10.0000    20.0000    26.0000    10.0000    16.0000    20.0000    -0.0005     0.0005   159.4164   -41.1662     3.1388    32.7000    14.7000     2.0000     1.0000   299.9970     0.000
     10     2.0000    -0.2000    -0.0000    17.7505     26.535     43.000 194311.000     30.000    44.9585   -20.0773   -27.3745   120.0962    -0.1480    -3.0001   -52.2908     0.0000     0.0000     0.0000     1.0000   300.0000   300.0000   -46.0014    52.2588    -1.9790    -1.4500    20.0000    20.0000    10.0000    20.0000    26.0000    10.0000    16.0000    20.0000    -0.0005     0.0005   159.4164   -41.1662     3.1387    32.4505    14.7000     2.0000     1.0000   300.0010     0.000
     11     2.0000    -0.2000    -0.0000    17.4997     26.638     33.000 194311.000     30.000    45.1326   -20.0773   -27.4829   120.0962    -0.1480    -3.0001   -52.0728     0.0000     0.0000     0.0000     1.0000   300.0000   300.0000   -46.1721    52.5040    -1.9790    -1.4500    20.0000    20.0000    10.0000    20.0000    26.0000    10.0000    16.0000    20.0000    -0.0005     0.0005   159.4164   -41.1662     3.1387    32.1997    14.7000     2.0000     1.0000   300.0020     0.000
     12     2.0000    -0.2000    -0.0000    17.2499     26.659     44.000 194311.000     30.000    45.3089   -20.0773   -27.5923   120.0962    -0.1480    -3.0001   -51.8540     0.0000     0.0000     0.0000     1.0000   300.0000   300.0000   -46.3425    52.7495    -1.9790    -1.4500    20.0000    20.0000    10.0000    20.0000    26.0000    10.0000    16.0000    20.0000    -0.0005     0.0005   159.4164   -41.1662     3.1388    31.9499    14.7000     2.0000     1.0000   299.9930     0.000
     13     2.0000    -0.2000    -0.0000    17.0001     26.830     27.000 194311.000     30.000    45.4872   -20.0773   -27.7029   120.0962    -0.1480    -3.0001   -51.6345     0.0000     0.0000     0.0000     1.0000   300.0000   300.0000   -46.5131    52.9944    -1.9790    -1.4500    20.0000    20.0000    10.0000    20.0000    26.0000    10.0000    16.0000    20.0000    -0.0005     0.0005   159.4164   -41.1662     3.1388    31.7001    14.7000     2.0000     1.0000   300.0030     0.000
     14     2.0000    -0.2000    -0.0000    16.7497     26.953     31.000 194311.000     30.000    45.6676   -20.0773   -27.8152   120.0962    -0.1480    -3.0001   -51.4143     0.0000     0.0000     0.0000     1.0000   300.0000   300.0000   -46.6831    53.2383    -1.9790    -1.4500    20.0000    20.0000    10.0000    20.0000    26.0000    10.0000    16.0000    20.0000    -0.0005     0.0005   159.4164   -41.1662     3.1387    31.4497    14.7000     2.0000     1.0000   300.0140     0.000
     15     2.0000    -0.2000    -0.0000    16.5002     27.040     27.000 194311.000     30.000    45.8503   -20.0773   -27.9285   120.0962    -0.1480    -3.0001   -51.1934     0.0000     0.0000     0.0000     1.0000   300.0000   300.0000   -46.8535    53.4844    -1.9790    -1.4500    20.0000    20.0000    10.0000    20.0000    26.0000    10.0000    16.0000    20.0000    -0.0005     0.0005   159.4164   -41.1662     3.1387    31.2002    14.7000     2.0000     1.0000   299.9990     0.000
     16     2.0000    -0.2000    -0.0000    16.2498     27.064     45.000 194311.000     30.000    46.0351   -20.0773   -28.0435   120.0962    -0.1480    -3.0001   -50.9717     0.0000     0.0000     0.0000     1.0000   300.0000   300.0000   -47.0229    53.7318    -1.9790    -1.4500    20.0000    20.0000    10.0000    20.0000    26.0000    10.0000    16.0000    20.0000    -0.0005     0.0005   159.4164   -41.1662     3.1387    30.9498    14.7000     2.0000     1.0000   299.9960     0.000
     17     2.0001    -0.2000    -0.0000    15.9997     27.232     33.000 194311.000     30.000    46.2221   -20.0773   -28.1599   120.0962    -0.1480    -3.0001   -50.7492     0.0000     0.0000     0.0000     1.0000   300.0000   300.0000   -47.1929    53.9806    -1.9790    -1.4500    20.0000    20.0000    10.0000    20.0000    26.0000    10.0000    16.0000    20.0000    -0.0005     0.0005   159.4164   -41.1662     3.1388    30.6997    14.7000     2.0000     1.0000   300.0210     0.000
     18     2.0000    -0.2000    -0.0000    15.7506     27.166     42.000 194311.000     30.000    46.4115   -20.0773   -28.2772   120.0962    -0.1480    -3.0001   -50.5260     0.0000     0.0000     0.0000     1.0000   300.0000   300.0000   -47.3624    54.2247    -1.9790    -1.4500    20.0000    20.0000    10.0000    20.0000    26.0000    10.0000    16.0000    20.0000    -0.0005     0.0005   159.4164   -41.1662     3.1387    30.4506    14.7000     2.0000     1.0000   299.9990     0.000
     19     2.0000    -0.2000    -0.0000    15.4997     27.445     46.000 194311.000     30.000    46.6032   -20.0773   -28.3969   120.0962    -0.1480    -3.0001   -50.3021     0.0000     0.0000     0.0000     1.0000   300.0000   300.0000   -47.5320    54.4731    -1.9790    -1.4500    20.0000    20.0000    10.0000    20.0000    26.0000    10.0000    16.0000    20.0000    -0.0005     0.0005   159.4164   -41.1662     3.1387    30.1997    14.7000     2.0000     1.0000   300.0250     0.000
     20     2.0000    -0.2000    -0.0000    15.2500     27.466     54.000 194311.000     30.000    46.7972   -20.0773   -28.5175   120.0962    -0.1480    -3.0001   -50.0773     0.0000     0.0000     0.0000     1.0000   300.0000   300.0000   -47.7011    54.7229    -1.9790    -1.4500    20.0000    20.0000    10.0000    20.0000    26.0000    10.0000    16.0000    20.0000    -0.0005     0.0005   159.4164   -41.1662     3.1387    29.9500    14.7000     2.0000     1.0000   299.9390     0.000
     21     2.0000    -0.2000    -0.0000    15.0002     27.448     40.000 194311.000     30.000    46.9938   -20.0773   -28.6397   120.0962    -0.1480    -3.0001   -49.8518     0.0000     0.0000     0.0000     1.0000   300.0000   300.0000   -47.8700    54.9727    -1.9790    -1.4500    20.0000    20.0000    10.0000    20.0000    26.0000    10.0000    16.0000    20.0000    -0.0005     0.0005   159.4164   -41.1662     3.1388    29.7002    14.7000     2.0000     1.0000   299.9820     0.000
     22     2.0000    -0.2000    -0.0000    14.7497     27.452     56.000 194311.000     30.000    47.1929   -20.0773   -28.7639   120.0962    -0.1480    -3.0001   -49.6254     0.0000     0.0000     0.0000     1.0000   300.0000   300.0000   -48.0393    55.2214    -1.9790    -1.4500    20.0000    20.0000    10.0000    20.0000    26.0000    10.0000    16.0000    20.0000    -0.0005     0.0005   159.4164   -41.1662     3.1387    29.4497    14.7000     2.0000     1.0000   299.9590     0.000
     23     2.0000    -0.2000    -0.0000    14.5000     27.164     51.000 194311.000     30.000    47.3944   -20.0773   -28.8893   120.0962    -0.1480    -3.0001   -49.3982     0.0000     0.0000     0.0000     1.0000   300.0000   300.0000   -48.2076    55.4710    -1.9790    -1.4500    20.0000    20.0000    10.0000    20.0000    26.0000    10.0000    16.0000    20.0000    -0.0005     0.0005   159.4164   -41.1662     3.1387    29.2000    14.7000     2.0000     1.0000   299.9960     0.000
     24     2.0001    -0.2000    -0.0000    14.2506     26.793     69.000 194311.000     30.000    47.5986   -20.0773   -29.0162   120.0962    -0.1480    -3.0001   -49.1702     0.0000     0.0000     0.0000     1.0000   300.0000   300.0000   -48.3769    55.7245    -1.9790    -1.4500    20.0000    20.0000    10.0000    20.0000    26.0000    10.0000    16.0000    20.0000    -0.0005     0.0005   159.4164   -41.1662     3.1388    28.9506    14.7000     2.0000     1.0000   300.0020     0.000
     25     2.0000    -0.2000    -0.0000    13.9994     26.356     89.000 194311.000     30.000    47.8055   -20.0773   -29.1456   120.0962    -0.1480    -3.0001   -48.9414     0.0000     0.0000     0.0000     1.0000   300.0000   300.0000   -48.5450    55.9769    -1.9790    -1.4500    20.0000    20.0000    10.0000    20.0000    26.0000    10.0000    16.0000    20.0000    -0.0005     0.0005   159.4164   -41.1662     3.1388    28.6995    14.7000     2.0000     1.0000   300.0100     0.000
     26     2.0000    -0.2000    -0.0000    13.7503     26.158     88.000 194311.000     30.000    48.0151   -20.0773   -29.2758   120.0962    -0.1480    -3.0001   -48.7117     0.0000     0.0000     0.0000     1.0000   300.0000   300.0000   -48.7139    56.2267    -1.9790    -1.4500    20.0000    20.0000    10.0000    20.0000    26.0000    10.0000    16.0000    20.0000    -0.0005     0.0005   159.4164   -41.1662     3.1387    28.4503    14.7000     2.0000     1.0000   300.0080     0.000
     27     2.0000    -0.2000    -0.0000    13.5003     25.884     92.000 194311.000     30.000    48.2274   -20.0773   -29.4082   120.0962    -0.1480    -3.0001   -48.4811     0.0000     0.0000     0.0000     1.0000   300.0000   300.0000   -48.8816    56.4804    -1.9790    -1.4500    20.0000    20.0000    10.0000    20.0000    26.0000    10.0000    16.0000    20.0000    -0.0005     0.0005   159.4164   -41.1662     3.1387    28.2003    14.7000     2.0000     1.0000   299.9960     0.000
     28     2.0000    -0.2000    -0.0000    13.2496     25.875     88.000 194311.000     30.000    48.4427   -20.0773   -29.5428   120.0962    -0.1480    -3.0001   -48.2497     0.0000     0.0000     0.0000     1.0000   300.0000   300.0000   -49.0500    56.7357    -1.9790    -1.4500    20.0000    20.0000    10.0000    20.0000    26.0000    10.0000    16.0000    20.0000    -0.0005     0.0005   159.4164   -41.1662     3.1387    27.9496    14.7000     2.0000     1.0000   300.0230     0.000
     29     2.0000    -0.2000    -0.0000    13.0000     25.949    118.000 194311.000     30.000    48.6608   -20.0773   -29.6786   120.0962    -0.1480    -3.0001   -48.0174     0.0000     0.0000     0.0000     1.0000   300.0000   300.0000   -49.2181    56.9916    -1.9790    -1.4500    20.0000    20.0000    10.0000    20.0000    26.0000    10.0000    16.0000    20.0000    -0.0005     0.0005   159.4164   -41.1662     3.1388    27.7000    14.7000     2.0000     1.0000   300.0130     0.000
     30     2.0000    -0.2000    -0.0000    12.7500     26.279     83.000 194311.000     30.000    48.8819   -20.0773   -29.8166   120.0962    -0.1480    -3.0001   -47.7842     0.0000     0.0000     0.0000     1.0000   300.0000   300.0000   -49.3859    57.2444    -1.9790    -1.4500    20.0000    20.0000    10.0000    20.0000    26.0000    10.0000    16.0000    20.0000    -0.0005     0.0005   159.4164   -41.1662     3.1387    27.4500    14.7000     2.0000     1.0000   300.0170     0.000
     31     2.0000    -0.2000    -0.0000    12.5000     26.735    126.000 194311.000     30.000    49.1060   -20.0773   -29.9565   120.0962    -0.1480    -3.0001   -47.5501     0.0000     0.0000     0.0000     1.0000   300.0000   300.0000   -49.5540    57.5025    -1.9790    -1.4500    20.0000    20.0000    10.0000    20.0000    26.0000    10.0000    16.0000    20.0000    -0.0005     0.0005   159.4164   -41.1662     3.1387    27.2000    14.7000     2.0000     1.0000   299.9950     0.000
     32     2.0000    -0.2000    -0.0000    12.2504     27.043    109.000 194311.000     30.000    49.3332   -20.0773   -30.0982   120.0962    -0.1480    -3.0001   -47.3151     0.0000     0.0000     0.0000     1.0000   300.0000   300.0000   -49.7212    57.7601    -1.9790    -1.4500    20.0000    20.0000    10.0000    20.0000    26.0000    10.0000    16.0000    20.0000    -0.0005     0.0005   159.4164   -41.1662     3.1388    26.9504    14.7000     2.0000     1.0000   300.0150     0.000
     33     2.0000    -0.2000    -0.0000    11.9999     27.146    108.000 194311.000     30.000    49.5636   -20.0773   -30.2424   120.0962    -0.1480    -3.0001   -47.0791     0.0000     0.0000     0.0000     1.0000   300.0000   300.0000   -49.8890    58.0192    -1.9790    -1.4500    20.0000    20.0000    10.0000    20.0000    26.0000    10.0000    16.0000    20.0000    -0.0005     0.0005   159.4164   -41.1662     3.1388    26.6999    14.7000     2.0000     1.0000   300.0000     0.000
     34     2.0000    -0.2000    -0.0000    11.7500     27.248     82.000 194311.000     30.000    49.7973   -20.0773   -30.3884   120.0962    -0.1480    -3.0001   -46.8422     0.0000     0.0000     0.0000     1.0000   300.0000   300.0000   -50.0564    58.2763    -1.9790    -1.4500    20.0000    20.0000    10.0000    20.0000    26.0000    10.0000    16.0000    20.0000    -0.0005     0.0005   159.4164   -41.1662     3.1387    26.4500    14.7000     2.0000     1.0000   300.0150     0.000
     35     2.0000    -0.2000    -0.0000    11.5003     27.107     84.000 194311.000     30.000    50.0343   -20.0773   -30.5363   120.0962    -0.1480    -3.0001   -46.6044     0.0000     0.0000     0.0000     1.0000   300.0000   300.0000   -50.2239    58.5375    -1.9790    -1.4500    20.0000    20.0000    10.0000    20.0000    26.0000    10.0000    16.0000    20.0000    -0.0005     0.0005   159.4164   -41.1662     3.1387    26.2003    14.7000     2.0000     1.0000   300.0080     0.000
     36     2.0000    -0.2000    -0.0000    11.2500     27.069     78.000 194311.000     30.000    50.2748   -20.0773   -30.6869   120.0962    -0.1480    -3.0001   -46.3655     0.0000     0.0000     0.0000     1.0000   300.0000   300.0000   -50.3908    58.7989    -1.9790    -1.4500    20.0000    20.0000    10.0000    20.0000    26.0000    10.0000    16.0000    20.0000    -0.0005     0.0005   159.4164   -41.1662     3.1388    25.9500    14.7000     2.0000     1.0000   300.0170     0.000
     37     2.0000    -0.2000    -0.0000    10.9999     26.909     65.000 194311.000     30.000    50.5187   -20.0773   -30.8395   120.0962    -0.1480    -3.0001   -46.1257     0.0000     0.0000     0.0000     1.0000   300.0000   300.0000   -50.5581    59.0586    -1.9790    -1.4500    20.0000    20.0000    10.0000    20.0000    26.0000    10.0000    16.0000    20.0000    -0.0005     0.0005   159.4164   -41.1662     3.1386    25.6999    14.7000     2.0000     1.0000   299.9920     0.000
