# scan = 29
# date = 9/4/2024
# time = 6:40:31 PM
# proposal = 32905
# experiment = Effects of electric field on phonon dispersion and lifetimes of poled PMN-30PT
# experiment_number = 812
# command = scan h 2 k -0.45 l 0 e 20 0 0.25 preset mcu 30
# builtin_command = scan h 2 k -0.45 l 0 e 20 0 0.25 preset mcu 30
# users = George Yumnam, Michael Manley, Puspa Upreti, Raphael Hermann, SHAOFEI WANG
# local_contact = Songxue Chi
# scan_title = 2k0 scans
# monochromator = PG002
# analyzer = Pg002
# sense = -+-
# collimation = 48-40-40-120
# samplename = PMN-30PT
# sampletype = crystal
# samplemosaic = 30.000000
# latticeconstants = 4.023634,4.023634,4.023634,90.000000,90.000000,90.000000
# ubmatrix = -0.008055,-0.248252,-0.008588,-0.248328,0.007840,0.006285,-0.006007,0.008785,-0.248304
# mode = 0
# plane_normal = 0.034555,-0.025290,0.999083
# ubconf = UB04Sep2024_115522AM.ini
# preset_type = normal
# preset_channel = mcu
# preset_value = 30.000000
# def_x = e
# def_y = detector
# col_headers =
#   Pt.          h          k          l          e       time   detector    monitor        mcu focal_length         m1         m2   mcrystal       marc     mtrans     mfocus       ampl         dc       freq     output       temp     temp_2         s1         s2        sgl        sgu        bbb        bbl        bbr        bbt        bab        bal        bar        bat        stl        stu         a1         a2          q         ei         ef   ampl_out output_state        vti     sample
      1     2.0001    -0.4501    -0.0000    20.0023     25.382     42.000 194311.000     30.000    43.4765   -20.0773   -26.4547   120.0962    -0.1480    -3.0001   -54.2224     0.0000     0.0000     0.0000     1.0000   300.0000   300.0000   -51.3993    51.4269    -1.9790    -1.4500    20.0000    20.0000    10.0000    20.0000    26.0000    10.0000    16.0000    20.0000    -0.0005     0.0005   159.4164   -41.1662     3.2014    34.7023    14.7000     2.0000     1.0000   300.0460     0.000
      2     1.9999    -0.4500    -0.0000    19.7497     25.328     30.000 194311.000     30.000    43.6339   -20.0773   -26.5533   120.0962    -0.1480    -3.0001   -54.0105     0.0000     0.0000     0.0000     1.0000   300.0000   300.0000   -51.5631    51.6645    -1.9790    -1.4500    20.0000    20.0000    10.0000    20.0000    26.0000    10.0000    16.0000    20.0000    -0.0005     0.0005   159.4164   -41.1662     3.2011    34.4497    14.7000     2.0000     1.0000   300.0190     0.000
      3     2.0000    -0.4500    -0.0000    19.4998     25.538     46.000 194311.000     30.000    43.7931   -20.0773   -26.6519   120.0962    -0.1480    -3.0001   -53.7978     0.0000     0.0000     0.0000     1.0000   300.0000   300.0000   -51.7278    51.9090    -1.9790    -1.4503    20.0000    20.0000    10.0000    20.0000    26.0000    10.0000    16.0000    20.0000    -0.0005     0.0005   159.4164   -41.1662     3.2013    34.1998    14.7000     2.0000     1.0000   300.0200     0.000
      4     2.0000    -0.4500    -0.0001    19.2501     25.525     40.000 194311.000     30.000    43.9541   -20.0773   -26.7516   120.0962    -0.1480    -3.0001   -53.5845     0.0000     0.0000     0.0000     1.0000   300.0000   300.0000   -51.8921    52.1507    -1.9790    -1.4485    20.0000    20.0000    10.0000    20.0000    26.0000    10.0000    16.0000    20.0000    -0.0005     0.0005   159.4164   -41.1662     3.2013    33.9501    14.7000     2.0000     1.0000   300.0030     0.000
      5     2.0001    -0.4500    -0.0001    19.0003     25.733     46.000 194311.000     30.000    44.1168   -20.0773   -26.8524   120.0962    -0.1480    -3.0001   -53.3706     0.0000     0.0000     0.0000     1.0000   300.0000   300.0000   -52.0559    52.3938    -1.9790    -1.4485    20.0000    20.0000    10.0000    20.0000    26.0000    10.0000    16.0000    20.0000    -0.0005     0.0005   159.4164   -41.1662     3.2013    33.7003    14.7000     2.0000     1.0000   299.9920     0.000
      6     2.0000    -0.4500    -0.0001    18.7494     25.874     47.000 194311.000     30.000    44.2813   -20.0773   -26.9548   120.0962    -0.1480    -3.0001   -53.1560     0.0000     0.0000     0.0000     1.0000   300.0000   300.0000   -52.2193    52.6349    -1.9790    -1.4485    20.0000    20.0000    10.0000    20.0000    26.0000    10.0000    16.0000    20.0000    -0.0005     0.0005   159.4164   -41.1662     3.2012    33.4494    14.7000     2.0000     1.0000   299.9950     0.000
      7     2.0000    -0.4500    -0.0001    18.5002     25.977     50.000 194311.000     30.000    44.4478   -20.0773   -27.0577   120.0962    -0.1480    -3.0001   -52.9407     0.0000     0.0000     0.0000     1.0000   300.0000   300.0000   -52.3826    52.8773    -1.9790    -1.4485    20.0000    20.0000    10.0000    20.0000    26.0000    10.0000    16.0000    20.0000    -0.0005     0.0005   159.4164   -41.1662     3.2012    33.2002    14.7000     2.0000     1.0000   300.0040     0.000
      8     2.0000    -0.4500    -0.0001    18.2501     26.142     46.000 194311.000     30.000    44.6161   -20.0773   -27.1621   120.0962    -0.1480    -3.0001   -52.7248     0.0000     0.0000     0.0000     1.0000   300.0000   300.0000   -52.5460    53.1222    -1.9790    -1.4485    20.0000    20.0000    10.0000    20.0000    26.0000    10.0000    16.0000    20.0000    -0.0005     0.0005   159.4164   -41.1662     3.2013    32.9501    14.7000     2.0000     1.0000   299.9830     0.000
      9     2.0000    -0.4500    -0.0001    17.9998     26.419     59.000 194311.000     30.000    44.7863   -20.0773   -27.2679   120.0962    -0.1480    -3.0001   -52.5081     0.0000     0.0000     0.0000     1.0000   300.0000   300.0000   -52.7089    53.3662    -1.9790    -1.4485    20.0000    20.0000    10.0000    20.0000    26.0000    10.0000    16.0000    20.0000    -0.0005     0.0005   159.4164   -41.1662     3.2013    32.6998    14.7000     2.0000     1.0000   300.0190     0.000
     10     2.0001    -0.4500    -0.0001    17.7506     26.473     57.000 194311.000     30.000    44.9585   -20.0773   -27.3744   120.0962    -0.1480    -3.0001   -52.2908     0.0000     0.0000     0.0000     1.0000   300.0000   300.0000   -52.8717    53.6117    -1.9790    -1.4485    20.0000    20.0000    10.0000    20.0000    26.0000    10.0000    16.0000    20.0000    -0.0005     0.0005   159.4164   -41.1662     3.2013    32.4506    14.7000     2.0000     1.0000   300.0000     0.000
     11     2.0000    -0.4500    -0.0001    17.4997     26.662     61.000 194311.000     30.000    45.1326   -20.0773   -27.4829   120.0962    -0.1480    -3.0001   -52.0728     0.0000     0.0000     0.0000     1.0000   300.0000   300.0000   -53.0343    53.8546    -1.9790    -1.4485    20.0000    20.0000    10.0000    20.0000    26.0000    10.0000    16.0000    20.0000    -0.0005     0.0005   159.4164   -41.1662     3.2012    32.1997    14.7000     2.0000     1.0000   300.0030     0.000
     12     2.0000    -0.4500    -0.0001    17.2500     26.680     58.000 194311.000     30.000    45.3089   -20.0773   -27.5923   120.0962    -0.1480    -3.0001   -51.8540     0.0000     0.0000     0.0000     1.0000   300.0000   300.0000   -53.1965    54.0999    -1.9790    -1.4485    20.0000    20.0000    10.0000    20.0000    26.0000    10.0000    16.0000    20.0000    -0.0005     0.0005   159.4164   -41.1662     3.2012    31.9500    14.7000     2.0000     1.0000   299.9960     0.000
     13     2.0000    -0.4500    -0.0001    17.0000     26.923     62.000 194311.000     30.000    45.4872   -20.0773   -27.7030   120.0962    -0.1480    -3.0001   -51.6345     0.0000     0.0000     0.0000     1.0000   300.0000   300.0000   -53.3589    54.3470    -1.9790    -1.4485    20.0000    20.0000    10.0000    20.0000    26.0000    10.0000    16.0000    20.0000    -0.0005     0.0005   159.4164   -41.1662     3.2013    31.7000    14.7000     2.0000     1.0000   300.0030     0.000
     14     2.0001    -0.4500    -0.0001    16.7497     26.912     61.000 194311.000     30.000    45.6676   -20.0773   -27.8152   120.0962    -0.1480    -3.0001   -51.4143     0.0000     0.0000     0.0000     1.0000   300.0000   300.0000   -53.5206    54.5952    -1.9790    -1.4485    20.0000    20.0000    10.0000    20.0000    26.0000    10.0000    16.0000    20.0000    -0.0005     0.0005   159.4164   -41.1662     3.2013    31.4497    14.7000     2.0000     1.0000   299.9420     0.000
     15     2.0000    -0.4500    -0.0001    16.5002     26.926     68.000 194311.000     30.000    45.8503   -20.0773   -27.9285   120.0962    -0.1480    -3.0001   -51.1934     0.0000     0.0000     0.0000     1.0000   300.0000   300.0000   -53.6824    54.8383    -1.9790    -1.4485    20.0000    20.0000    10.0000    20.0000    26.0000    10.0000    16.0000    20.0000    -0.0005     0.0005   159.4164   -41.1662     3.2012    31.2002    14.7000     2.0000     1.0000   300.0150     0.000
     16     2.0000    -0.4500    -0.0001    16.2498     27.036     69.000 194311.000     30.000    46.0351   -20.0773   -28.0435   120.0962    -0.1480    -3.0001   -50.9717     0.0000     0.0000     0.0000     1.0000   300.0000   300.0000   -53.8441    55.0871    -1.9790    -1.4485    20.0000    20.0000    10.0000    20.0000    26.0000    10.0000    16.0000    20.0000    -0.0005     0.0005   159.4164   -41.1662     3.2012    30.9498    14.7000     2.0000     1.0000   299.9430     0.000
     17     2.0000    -0.4500    -0.0001    15.9998     27.187     46.000 194311.000     30.000    46.2221   -20.0773   -28.1598   120.0962    -0.1480    -3.0001   -50.7492     0.0000     0.0000     0.0000     1.0000   300.0000   300.0000   -54.0055    55.3365    -1.9790    -1.4485    20.0000    20.0000    10.0000    20.0000    26.0000    10.0000    16.0000    20.0000    -0.0005     0.0005   159.4164   -41.1662     3.2012    30.6998    14.7000     2.0000     1.0000   300.0000     0.000
     18     2.0001    -0.4500    -0.0001    15.7505     27.188     52.000 194311.000     30.000    46.4115   -20.0773   -28.2773   120.0962    -0.1480    -3.0001   -50.5260     0.0000     0.0000     0.0000     1.0000   300.0000   300.0000   -54.1668    55.5869    -1.9790    -1.4485    20.0000    20.0000    10.0000    20.0000    26.0000    10.0000    16.0000    20.0000    -0.0005     0.0005   159.4164   -41.1662     3.2013    30.4505    14.7000     2.0000     1.0000   299.9460     0.000
     19     2.0000    -0.4500    -0.0001    15.4998     27.362     33.000 194311.000     30.000    46.6032   -20.0773   -28.3968   120.0962    -0.1480    -3.0001   -50.3021     0.0000     0.0000     0.0000     1.0000   300.0000   300.0000   -54.3276    55.8334    -1.9790    -1.4485    20.0000    20.0000    10.0000    20.0000    26.0000    10.0000    16.0000    20.0000    -0.0005     0.0005   159.4164   -41.1662     3.2012    30.1998    14.7000     2.0000     1.0000   300.0080     0.000
     20     2.0000    -0.4500    -0.0001    15.2500     27.502     54.000 194311.000     30.000    46.7972   -20.0773   -28.5175   120.0962    -0.1480    -3.0001   -50.0773     0.0000     0.0000     0.0000     1.0000   300.0000   300.0000   -54.4889    56.0834    -1.9790    -1.4485    20.0000    20.0000    10.0000    20.0000    26.0000    10.0000    16.0000    20.0000    -0.0005     0.0005   159.4164   -41.1662     3.2012    29.9500    14.7000     2.0000     1.0000   300.0170     0.000
     21     2.0000    -0.4500    -0.0001    15.0002     27.415     32.000 194311.000     30.000    46.9938   -20.0773   -28.6397   120.0962    -0.1480    -3.0001   -49.8518     0.0000     0.0000     0.0000     1.0000   300.0000   300.0000   -54.6491    56.3357    -1.9790    -1.4485    20.0000    20.0000    10.0000    20.0000    26.0000    10.0000    16.0000    20.0000    -0.0005     0.0005   159.4164   -41.1662     3.2013    29.7002    14.7000     2.0000     1.0000   300.0140     0.000
     22     2.0000    -0.4500    -0.0001    14.7497     27.357     33.000 194311.000     30.000    47.1929   -20.0773   -28.7639   120.0962    -0.1480    -3.0001   -49.6254     0.0000     0.0000     0.0000     1.0000   300.0000   300.0000   -54.8101    56.5889    -1.9790    -1.4485    20.0000    20.0000    10.0000    20.0000    26.0000    10.0000    16.0000    20.0000    -0.0005     0.0005   159.4164   -41.1662     3.2013    29.4497    14.7000     2.0000     1.0000   300.0210     0.000
     23     2.0000    -0.4500    -0.0001    14.5000     27.096     41.000 194311.000     30.000    47.3944   -20.0773   -28.8893   120.0962    -0.1480    -3.0001   -49.3982     0.0000     0.0000     0.0000     1.0000   300.0000   300.0000   -54.9701    56.8381    -1.9790    -1.4485    20.0000    20.0000    10.0000    20.0000    26.0000    10.0000    16.0000    20.0000    -0.0005     0.0005   159.4164   -41.1662     3.2012    29.2000    14.7000     2.0000     1.0000   300.0140     0.000
     24     2.0000    -0.4500    -0.0001    14.2506     26.642     30.000 194311.000     30.000    47.5986   -20.0773   -29.0162   120.0962    -0.1480    -3.0001   -49.1702     0.0000     0.0000     0.0000     1.0000   300.0000   300.0000   -55.1305    57.0918    -1.9790    -1.4485    20.0000    20.0000    10.0000    20.0000    26.0000    10.0000    16.0000    20.0000    -0.0005     0.0005   159.4164   -41.1662     3.2012    28.9506    14.7000     2.0000     1.0000   300.0020     0.000
     25     2.0000    -0.4500    -0.0001    13.9994     26.229     27.000 194311.000     30.000    47.8055   -20.0773   -29.1456   120.0962    -0.1480    -3.0001   -48.9414     0.0000     0.0000     0.0000     1.0000   300.0000   300.0000   -55.2904    57.3472    -1.9790    -1.4485    20.0000    20.0000    10.0000    20.0000    26.0000    10.0000    16.0000    20.0000    -0.0005     0.0005   159.4164   -41.1662     3.2012    28.6995    14.7000     2.0000     1.0000   300.0100     0.000
     26     2.0001    -0.4500    -0.0001    13.7503     25.976     24.000 194311.000     30.000    48.0151   -20.0773   -29.2758   120.0962    -0.1480    -3.0001   -48.7117     0.0000     0.0000     0.0000     1.0000   300.0000   300.0000   -55.4503    57.6031    -1.9790    -1.4485    20.0000    20.0000    10.0000    20.0000    26.0000    10.0000    16.0000    20.0000    -0.0005     0.0005   159.4164   -41.1662     3.2013    28.4503    14.7000     2.0000     1.0000   300.0150     0.000
     27     2.0000    -0.4500    -0.0001    13.5003     25.750     38.000 194311.000     30.000    48.2274   -20.0773   -29.4082   120.0962    -0.1480    -3.0001   -48.4811     0.0000     0.0000     0.0000     1.0000   300.0000   300.0000   -55.6099    57.8552    -1.9790    -1.4485    20.0000    20.0000    10.0000    20.0000    26.0000    10.0000    16.0000    20.0000    -0.0005     0.0005   159.4164   -41.1662     3.2012    28.2003    14.7000     2.0000     1.0000   300.0030     0.000
     28     2.0000    -0.4500    -0.0001    13.2496     25.837     25.000 194311.000     30.000    48.4427   -20.0773   -29.5428   120.0962    -0.1480    -3.0001   -48.2497     0.0000     0.0000     0.0000     1.0000   300.0000   300.0000   -55.7694    58.1131    -1.9790    -1.4485    20.0000    20.0000    10.0000    20.0000    26.0000    10.0000    16.0000    20.0000    -0.0005     0.0005   159.4164   -41.1662     3.2012    27.9496    14.7000     2.0000     1.0000   300.0080     0.000
     29     2.0000    -0.4500    -0.0001    13.0000     26.003     32.000 194311.000     30.000    48.6608   -20.0773   -29.6786   120.0962    -0.1480    -3.0001   -48.0174     0.0000     0.0000     0.0000     1.0000   300.0000   300.0000   -55.9290    58.3698    -1.9790    -1.4485    20.0000    20.0000    10.0000    20.0000    26.0000    10.0000    16.0000    20.0000    -0.0005     0.0005   159.4164   -41.1662     3.2012    27.7000    14.7000     2.0000     1.0000   300.0070     0.000
     30     2.0000    -0.4500    -0.0001    12.7501     26.297     30.000 194311.000     30.000    48.8819   -20.0773   -29.8166   120.0962    -0.1480    -3.0001   -47.7842     0.0000     0.0000     0.0000     1.0000   300.0000   300.0000   -56.0876    58.6265    -1.9790    -1.4485    20.0000    20.0000    10.0000    20.0000    26.0000    10.0000    16.0000    20.0000    -0.0005     0.0005   159.4164   -41.1662     3.2012    27.4501    14.7000     2.0000     1.0000   300.0170     0.000
     31     2.0000    -0.4500    -0.0001    12.5001     26.674     20.000 194311.000     30.000    49.1060   -20.0773   -29.9565   120.0962    -0.1480    -3.0001   -47.5501     0.0000     0.0000     0.0000     1.0000   300.0000   300.0000   -56.2471    58.8859    -1.9790    -1.4485    20.0000    20.0000    10.0000    20.0000    26.0000    10.0000    16.0000    20.0000    -0.0005     0.0005   159.4164   -41.1662     3.2012    27.2001    14.7000     2.0000     1.0000   299.9950     0.000
     32     2.0000    -0.4500    -0.0001    12.2505     26.939     24.000 194311.000     30.000    49.3332   -20.0773   -30.0981   120.0962    -0.1480    -3.0001   -47.3151     0.0000     0.0000     0.0000     1.0000   300.0000   300.0000   -56.4058    59.1475    -1.9790    -1.4485    20.0000    20.0000    10.0000    20.0000    26.0000    10.0000    16.0000    20.0000    -0.0005     0.0005   159.4164   -41.1662     3.2013    26.9505    14.7000     2.0000     1.0000   300.0080     0.000
     33     2.0000    -0.4500    -0.0001    11.9998     27.184     25.000 194311.000     30.000    49.5636   -20.0773   -30.2425   120.0962    -0.1480    -3.0001   -47.0791     0.0000     0.0000     0.0000     1.0000   300.0000   300.0000   -56.5644    59.4080    -1.9790    -1.4485    20.0000    20.0000    10.0000    20.0000    26.0000    10.0000    16.0000    20.0000    -0.0005     0.0005   159.4164   -41.1662     3.2012    26.6998    14.7000     2.0000     1.0000   300.0090     0.000
     34     2.0000    -0.4500    -0.0001    11.7500     27.312     27.000 194311.000     30.000    49.7973   -20.0773   -30.3883   120.0962    -0.1480    -3.0001   -46.8422     0.0000     0.0000     0.0000     1.0000   300.0000   300.0000   -56.7231    59.6672    -1.9790    -1.4485    20.0000    20.0000    10.0000    20.0000    26.0000    10.0000    16.0000    20.0000    -0.0005     0.0005   159.4164   -41.1662     3.2011    26.4500    14.7000     2.0000     1.0000   300.0180     0.000
     35     2.0000    -0.4500    -0.0001    11.5001     27.191     36.000 194311.000     30.000    50.0343   -20.0773   -30.5364   120.0962    -0.1480    -3.0001   -46.6044     0.0000     0.0000     0.0000     1.0000   300.0000   300.0000   -56.8813    59.9330    -1.9790    -1.4485    20.0000    20.0000    10.0000    20.0000    26.0000    10.0000    16.0000    20.0000    -0.0005     0.0005   159.4164   -41.1662     3.2013    26.2001    14.7000     2.0000     1.0000   300.0090     0.000
     36     2.0001    -0.4500    -0.0001    11.2501     27.031     37.000 194311.000     30.000    50.2748   -20.0773   -30.6868   120.0962    -0.1480    -3.0001   -46.3655     0.0000     0.0000     0.0000     1.0000   300.0000   300.0000   -57.0395    60.1985    -1.9790    -1.4485    20.0000    20.0000    10.0000    20.0000    26.0000    10.0000    16.0000    20.0000    -0.0005     0.0005   159.4164   -41.1662     3.2013    25.9501    14.7000     2.0000     1.0000   300.0090     0.000
     37     1.9999    -0.4500    -0.0001    10.9999     26.707     28.000 194311.000     30.000    50.5187   -20.0773   -30.8395   120.0962    -0.1480    -3.0001   -46.1257     0.0000     0.0000     0.0000     1.0000   300.0000   300.0000   -57.1973    60.4588    -1.9790    -1.4485    20.0000    20.0000    10.0000    20.0000    26.0000    10.0000    16.0000    20.0000    -0.0005     0.0005   159.4164   -41.1662     3.2011    25.6999    14.7000     2.0000     1.0000   299.9590     0.000
