# scan = 131
# date = 9/7/2024
# time = 7:44:59 AM
# proposal = 32905
# experiment = Effects of electric field on phonon dispersion and lifetimes of poled PMN-30PT
# experiment_number = 812
# command = scan h 2.5 k 0.1 l 0 e 15 0.5 0.25 preset mcu 30
# builtin_command = scan h 2.5 k 0.1 l 0 e 15 0.5 0.25 preset mcu 30
# users = George Yumnam, Michael Manley, Puspa Upreti, Raphael Hermann, SHAOFEI WANG
# local_contact = Songxue Chi
# scan_title = (2.5,0.1,0) X to M transverse mode scan at E 400 V
# monochromator = PG002
# analyzer = Pg002
# sense = -+-
# collimation = 48-40-40-120
# samplename = PMN-30PT
# sampletype = crystal
# samplemosaic = 30.000000
# latticeconstants = 4.023634,4.023634,4.023634,90.000000,90.000000,90.000000
# ubmatrix = -0.008055,-0.248252,-0.008588,-0.248328,0.007840,0.006285,-0.006007,0.008785,-0.248304
# mode = 0
# plane_normal = 0.034555,-0.025290,0.999083
# ubconf = UB04Sep2024_115522AM.ini
# preset_type = normal
# preset_channel = mcu
# preset_value = 30.000000
# def_x = e
# def_y = detector
# col_headers =
#   Pt.          h          k          l          e       time   detector    monitor        mcu focal_length         m1         m2   mcrystal       marc     mtrans     mfocus       ampl         dc       freq     output       temp     temp_2         s1         s2        sgl        sgu        bbb        bbl        bbr        bbt        bab        bal        bar        bat        stl        stu         a1         a2          q         ei         ef   ampl_out output_state        vti     sample
      1     2.5000     0.1000    -0.0001    15.0018     27.427     38.000 194311.000     30.000    46.9938   -20.0773   -28.6390   120.0962    -0.1480    -3.0001   -49.8518     0.0000   400.0000     0.0000     1.0000   300.0000   300.0000   -36.3251    72.2054    -1.9790    -1.4485    20.0000    20.0000    10.0000    20.0000    26.0000    10.0000    16.0000    20.0000    -0.0005     0.0005   159.4164   -41.1662     3.9070    29.7018    14.7000     2.0000     1.0000   300.0340     0.000
      2     2.5000     0.1000    -0.0001    14.7495     27.096     35.000 194311.000     30.000    47.1929   -20.0773   -28.7640   120.0962    -0.1480    -3.0001   -49.6254     0.0000   400.0000     0.0000     1.0000   300.0000   300.0000   -36.4024    72.4914    -1.9790    -1.4485    20.0000    20.0000    10.0000    20.0000    26.0000    10.0000    16.0000    20.0000    -0.0005     0.0005   159.4164   -41.1662     3.9070    29.4495    14.7000     2.0000     1.0000   300.0240     0.000
      3     2.5001     0.1000    -0.0001    14.4999     26.875     34.000 194311.000     30.000    47.3944   -20.0773   -28.8893   120.0962    -0.1480    -3.0001   -49.3982     0.0000   400.0000     0.0000     1.0000   300.0000   300.0000   -36.4793    72.7798    -1.9790    -1.4485    20.0000    20.0000    10.0000    20.0000    26.0000    10.0000    16.0000    20.0000    -0.0005     0.0005   159.4164   -41.1662     3.9072    29.1999    14.7000     2.0000     1.0000   300.0190     0.000
      4     2.5000     0.1000    -0.0001    14.2507     26.445     26.000 194311.000     30.000    47.5986   -20.0773   -29.0161   120.0962    -0.1480    -3.0001   -49.1702     0.0000   400.0000     0.0000     1.0000   300.0000   300.0000   -36.5545    73.0623    -1.9790    -1.4485    20.0000    20.0000    10.0000    20.0000    26.0000    10.0000    16.0000    20.0000    -0.0005     0.0005   159.4164   -41.1662     3.9070    28.9508    14.7000     2.0000     1.0000   299.9990     0.000
      5     2.5000     0.1000    -0.0001    13.9994     26.056     41.000 194311.000     30.000    47.8055   -20.0773   -29.1456   120.0962    -0.1480    -3.0001   -48.9414     0.0000   400.0000     0.0000     1.0000   300.0000   300.0000   -36.6294    73.3533    -1.9790    -1.4485    20.0000    20.0000    10.0000    20.0000    26.0000    10.0000    16.0000    20.0000    -0.0005     0.0005   159.4164   -41.1662     3.9071    28.6995    14.7000     2.0000     1.0000   299.9620     0.000
      6     2.5000     0.1000    -0.0001    13.7503     25.738     36.000 194311.000     30.000    48.0151   -20.0773   -29.2758   120.0962    -0.1480    -3.0001   -48.7117     0.0000   400.0000     0.0000     1.0000   300.0000   300.0000   -36.7041    73.6405    -1.9790    -1.4485    20.0000    20.0000    10.0000    20.0000    26.0000    10.0000    16.0000    20.0000    -0.0005     0.0005   159.4164   -41.1662     3.9070    28.4503    14.7000     2.0000     1.0000   299.9990     0.000
      7     2.5000     0.1000    -0.0001    13.5004     25.487     43.000 194311.000     30.000    48.2274   -20.0773   -29.4082   120.0962    -0.1480    -3.0001   -48.4811     0.0000   400.0000     0.0000     1.0000   300.0000   300.0000   -36.7771    73.9348    -1.9790    -1.4485    20.0000    20.0000    10.0000    20.0000    26.0000    10.0000    16.0000    20.0000    -0.0005     0.0005   159.4164   -41.1662     3.9071    28.2004    14.7000     2.0000     1.0000   300.0020     0.000
      8     2.5000     0.1000    -0.0001    13.2496     25.516     35.000 194311.000     30.000    48.4427   -20.0773   -29.5428   120.0962    -0.1480    -3.0001   -48.2497     0.0000   400.0000     0.0000     1.0000   300.0000   300.0000   -36.8503    74.2277    -1.9790    -1.4485    20.0000    20.0000    10.0000    20.0000    26.0000    10.0000    16.0000    20.0000    -0.0005     0.0005   159.4164   -41.1662     3.9070    27.9496    14.7000     2.0000     1.0000   299.9790     0.000
      9     2.5000     0.1000    -0.0001    13.0000     25.683     36.000 194311.000     30.000    48.6608   -20.0773   -29.6786   120.0962    -0.1480    -3.0001   -48.0174     0.0000   400.0000     0.0000     1.0000   300.0000   300.0000   -36.9221    74.5241    -1.9790    -1.4485    20.0000    20.0000    10.0000    20.0000    26.0000    10.0000    16.0000    20.0000    -0.0005     0.0005   159.4164   -41.1662     3.9071    27.7000    14.7000     2.0000     1.0000   300.0130     0.000
     10     2.5000     0.1000    -0.0001    12.7500     25.984     39.000 194311.000     30.000    48.8819   -20.0773   -29.8166   120.0962    -0.1480    -3.0001   -47.7842     0.0000   400.0000     0.0000     1.0000   300.0000   300.0000   -36.9935    74.8210    -1.9790    -1.4485    20.0000    20.0000    10.0000    20.0000    26.0000    10.0000    16.0000    20.0000    -0.0005     0.0005   159.4164   -41.1662     3.9070    27.4500    14.7000     2.0000     1.0000   300.0020     0.000
     11     2.5000     0.1000    -0.0001    12.4998     26.432     39.000 194311.000     30.000    49.1060   -20.0773   -29.9566   120.0962    -0.1480    -3.0001   -47.5501     0.0000   400.0000     0.0000     1.0000   300.0000   300.0000   -37.0635    75.1227    -1.9790    -1.4485    20.0000    20.0000    10.0000    20.0000    26.0000    10.0000    16.0000    20.0000    -0.0005     0.0005   159.4164   -41.1662     3.9071    27.1998    14.7000     2.0000     1.0000   300.0180     0.000
     12     2.5000     0.1000    -0.0001    12.2504     26.719     36.000 194311.000     30.000    49.3332   -20.0773   -30.0982   120.0962    -0.1480    -3.0001   -47.3151     0.0000   400.0000     0.0000     1.0000   300.0000   300.0000   -37.1331    75.4233    -1.9790    -1.4485    20.0000    20.0000    10.0000    20.0000    26.0000    10.0000    16.0000    20.0000    -0.0005     0.0005   159.4164   -41.1662     3.9071    26.9504    14.7000     2.0000     1.0000   299.9900     0.000
     13     2.5000     0.1000    -0.0001    11.9997     26.937     48.000 194311.000     30.000    49.5636   -20.0773   -30.2425   120.0962    -0.1480    -3.0001   -47.0791     0.0000   400.0000     0.0000     1.0000   300.0000   300.0000   -37.2019    75.7273    -1.9790    -1.4485    20.0000    20.0000    10.0000    20.0000    26.0000    10.0000    16.0000    20.0000    -0.0005     0.0005   159.4164   -41.1662     3.9071    26.6997    14.7000     2.0000     1.0000   300.0020     0.000
     14     2.5000     0.1000    -0.0001    11.7500     27.006     58.000 194311.000     30.000    49.7973   -20.0773   -30.3884   120.0962    -0.1480    -3.0001   -46.8422     0.0000   400.0000     0.0000     1.0000   300.0000   300.0000   -37.2696    76.0312    -1.9790    -1.4485    20.0000    20.0000    10.0000    20.0000    26.0000    10.0000    16.0000    20.0000    -0.0005     0.0005   159.4164   -41.1662     3.9070    26.4500    14.7000     2.0000     1.0000   300.0150     0.000
     15     2.5000     0.1000    -0.0001    11.5002     26.813     65.000 194311.000     30.000    50.0343   -20.0773   -30.5364   120.0962    -0.1480    -3.0001   -46.6044     0.0000   400.0000     0.0000     1.0000   300.0000   300.0000   -37.3366    76.3412    -1.9790    -1.4485    20.0000    20.0000    10.0000    20.0000    26.0000    10.0000    16.0000    20.0000    -0.0005     0.0005   159.4164   -41.1662     3.9071    26.2002    14.7000     2.0000     1.0000   300.0080     0.000
     16     2.5000     0.1000    -0.0001    11.2501     26.773     54.000 194311.000     30.000    50.2748   -20.0773   -30.6868   120.0962    -0.1480    -3.0001   -46.3655     0.0000   400.0000     0.0000     1.0000   300.0000   300.0000   -37.4024    76.6501    -1.9790    -1.4485    20.0000    20.0000    10.0000    20.0000    26.0000    10.0000    16.0000    20.0000    -0.0005     0.0005   159.4164   -41.1662     3.9070    25.9501    14.7000     2.0000     1.0000   300.0070     0.000
     17     2.5001     0.1000    -0.0001    11.0000     26.522     52.000 194311.000     30.000    50.5187   -20.0773   -30.8395   120.0962    -0.1480    -3.0001   -46.1257     0.0000   400.0000     0.0000     1.0000   300.0000   300.0000   -37.4675    76.9664    -1.9790    -1.4485    20.0000    20.0000    10.0000    20.0000    26.0000    10.0000    16.0000    20.0000    -0.0005     0.0005   159.4164   -41.1662     3.9072    25.7000    14.7000     2.0000     1.0000   299.9620     0.000
     18     2.5000     0.1000    -0.0001    10.7500     26.320     58.000 194311.000     30.000    50.7662   -20.0773   -30.9943   120.0962    -0.1480    -3.0001   -45.8849     0.0000   400.0000     0.0000     1.0000   300.0000   300.0000   -37.5318    77.2767    -1.9790    -1.4485    20.0000    20.0000    10.0000    20.0000    26.0000    10.0000    16.0000    20.0000    -0.0005     0.0005   159.4164   -41.1662     3.9070    25.4501    14.7000     2.0000     1.0000   300.0060     0.000
     19     2.5001     0.1000    -0.0001    10.5002     26.233     56.000 194311.000     30.000    51.0174   -20.0773   -31.1515   120.0962    -0.1480    -3.0001   -45.6430     0.0000   400.0000     0.0000     1.0000   300.0000   300.0000   -37.5946    77.5977    -1.9790    -1.4485    20.0000    20.0000    10.0000    20.0000    26.0000    10.0000    16.0000    20.0000    -0.0005     0.0005   159.4164   -41.1662     3.9072    25.2002    14.7000     2.0000     1.0000   299.9990     0.000
     20     2.5000     0.1000    -0.0001    10.2503     26.374     58.000 194311.000     30.000    51.2724   -20.0773   -31.3110   120.0962    -0.1480    -3.0001   -45.4002     0.0000   400.0000     0.0000     1.0000   300.0000   300.0000   -37.6566    77.9155    -1.9790    -1.4485    20.0000    20.0000    10.0000    20.0000    26.0000    10.0000    16.0000    20.0000    -0.0005     0.0005   159.4164   -41.1662     3.9071    24.9504    14.7000     2.0000     1.0000   299.9950     0.000
     21     2.5000     0.1000    -0.0001     9.9998     26.631     51.000 194311.000     30.000    51.5312   -20.0773   -31.4735   120.0962    -0.1480    -3.0001   -45.1562     0.0000   400.0000     0.0000     1.0000   300.0000   300.0000   -37.7174    78.2387    -1.9790    -1.4485    20.0000    20.0000    10.0000    20.0000    26.0000    10.0000    16.0000    20.0000    -0.0005     0.0005   159.4164   -41.1662     3.9071    24.6998    14.7000     2.0000     1.0000   300.0140     0.000
     22     2.5000     0.1000    -0.0001     9.7499     26.873     53.000 194311.000     30.000    51.7940   -20.0773   -31.6382   120.0962    -0.1480    -3.0001   -44.9112     0.0000   400.0000     0.0000     1.0000   300.0000   300.0000   -37.7773    78.5639    -1.9790    -1.4485    20.0000    20.0000    10.0000    20.0000    26.0000    10.0000    16.0000    20.0000    -0.0005     0.0005   159.4164   -41.1662     3.9071    24.4499    14.7000     2.0000     1.0000   299.9920     0.000
     23     2.5000     0.1000    -0.0001     9.4998     27.325     43.000 194311.000     30.000    52.0609   -20.0773   -31.8055   120.0962    -0.1480    -3.0001   -44.6652     0.0000   400.0000     0.0000     1.0000   300.0000   300.0000   -37.8361    78.8893    -1.9790    -1.4485    20.0000    20.0000    10.0000    20.0000    26.0000    10.0000    16.0000    20.0000    -0.0005     0.0005   159.4164   -41.1662     3.9070    24.1998    14.7000     2.0000     1.0000   299.9970     0.000
     24     2.5000     0.1000    -0.0001     9.2503     27.551     24.000 194311.000     30.000    52.3319   -20.0773   -31.9752   120.0962    -0.1480    -3.0001   -44.4180     0.0000   400.0000     0.0000     1.0000   300.0000   300.0000   -37.8939    79.2208    -1.9790    -1.4485    20.0000    20.0000    10.0000    20.0000    26.0000    10.0000    16.0000    20.0000    -0.0005     0.0005   159.4164   -41.1662     3.9071    23.9503    14.7000     2.0000     1.0000   299.9960     0.000
     25     2.5000     0.1000    -0.0001     8.9999     27.469     34.000 194311.000     30.000    52.6071   -20.0773   -32.1482   120.0962    -0.1480    -3.0001   -44.1697     0.0000   400.0000     0.0000     1.0000   300.0000   300.0000   -37.9496    79.5533    -1.9790    -1.4485    20.0000    20.0000    10.0000    20.0000    26.0000    10.0000    16.0000    20.0000    -0.0005     0.0005   159.4164   -41.1662     3.9071    23.6999    14.7000     2.0000     1.0000   300.0060     0.000
     26     2.5000     0.1000    -0.0001     8.7501     26.890     37.000 194311.000     30.000    52.8868   -20.0773   -32.3237   120.0962    -0.1480    -3.0001   -43.9203     0.0000   400.0000     0.0000     1.0000   300.0000   300.0000   -38.0048    79.8885    -1.9790    -1.4485    20.0000    20.0000    10.0000    20.0000    26.0000    10.0000    16.0000    20.0000    -0.0005     0.0005   159.4164   -41.1662     3.9070    23.4501    14.7000     2.0000     1.0000   300.0130     0.000
     27     2.5000     0.1000    -0.0001     8.5000     26.080     22.000 194311.000     30.000    53.1710   -20.0773   -32.5022   120.0962    -0.1480    -3.0001   -43.6697     0.0000   400.0000     0.0000     1.0000   300.0000   300.0000   -38.0591    80.2285    -1.9790    -1.4485    20.0000    20.0000    10.0000    20.0000    26.0000    10.0000    16.0000    20.0000    -0.0005     0.0005   159.4164   -41.1662     3.9071    23.2000    14.7000     2.0000     1.0000   299.9960     0.000
     28     2.5001     0.1000    -0.0001     8.2498     25.177     22.000 194311.000     30.000    53.4598   -20.0773   -32.6838   120.0962    -0.1480    -3.0001   -43.4180     0.0000   400.0000     0.0000     1.0000   300.0000   300.0000   -38.1111    80.5729    -1.9790    -1.4485    20.0000    20.0000    10.0000    20.0000    26.0000    10.0000    16.0000    20.0000    -0.0005     0.0005   159.4164   -41.1662     3.9072    22.9498    14.7000     2.0000     1.0000   300.0020     0.000
     29     2.5000     0.1000    -0.0001     8.0000     24.433     32.000 194311.000     30.000    53.7534   -20.0773   -32.8682   120.0962    -0.1480    -3.0001   -43.1651     0.0000   400.0000     0.0000     1.0000   300.0000   300.0000   -38.1624    80.9159    -1.9790    -1.4485    20.0000    20.0000    10.0000    20.0000    26.0000    10.0000    16.0000    20.0000    -0.0005     0.0005   159.4164   -41.1662     3.9071    22.7000    14.7000     2.0000     1.0000   299.9610     0.000
     30     2.5000     0.1000    -0.0001     7.7501     24.083     24.000 194311.000     30.000    54.0519   -20.0773   -33.0559   120.0962    -0.1480    -3.0001   -42.9109     0.0000   400.0000     0.0000     1.0000   300.0000   300.0000   -38.2124    81.2619    -1.9790    -1.4485    20.0000    20.0000    10.0000    20.0000    26.0000    10.0000    16.0000    20.0000    -0.0005     0.0005   159.4164   -41.1662     3.9070    22.4501    14.7000     2.0000     1.0000   300.0170     0.000
     31     2.5000     0.1000    -0.0001     7.4999     24.041     28.000 194311.000     30.000    54.3554   -20.0773   -33.2470   120.0962    -0.1480    -3.0001   -42.6556     0.0000   400.0000     0.0000     1.0000   300.0000   300.0000   -38.2604    81.6159    -1.9790    -1.4485    20.0000    20.0000    10.0000    20.0000    26.0000    10.0000    16.0000    20.0000    -0.0005     0.0005   159.4164   -41.1662     3.9071    22.1999    14.7000     2.0000     1.0000   299.9480     0.000
     32     2.5001     0.1000    -0.0001     7.2502     23.921     28.000 194311.000     30.000    54.6640   -20.0773   -33.4411   120.0962    -0.1480    -3.0001   -42.3989     0.0000   400.0000     0.0000     1.0000   300.0000   300.0000   -38.3073    81.9718    -1.9790    -1.4485    20.0000    20.0000    10.0000    20.0000    26.0000    10.0000    16.0000    20.0000    -0.0005     0.0005   159.4164   -41.1662     3.9072    21.9502    14.7000     2.0000     1.0000   299.9990     0.000
     33     2.5000     0.1000    -0.0001     6.9998     23.943     22.000 194311.000     30.000    54.9780   -20.0773   -33.6392   120.0962    -0.1480    -3.0001   -42.1410     0.0000   400.0000     0.0000     1.0000   300.0000   300.0000   -38.3526    82.3285    -1.9790    -1.4485    20.0000    20.0000    10.0000    20.0000    26.0000    10.0000    16.0000    20.0000    -0.0005     0.0005   159.4164   -41.1662     3.9071    21.6998    14.7000     2.0000     1.0000   300.0140     0.000
     34     2.5000     0.1000    -0.0001     6.7502     24.069     22.000 194311.000     30.000    55.2975   -20.0773   -33.8402   120.0962    -0.1480    -3.0001   -41.8818     0.0000   400.0000     0.0000     1.0000   300.0000   300.0000   -38.3961    82.6889    -1.9790    -1.4485    20.0000    20.0000    10.0000    20.0000    26.0000    10.0000    16.0000    20.0000    -0.0005     0.0005   159.4164   -41.1662     3.9070    21.4502    14.7000     2.0000     1.0000   300.0030     0.000
     35     2.4999     0.1000    -0.0001     6.4999     24.275     34.000 194311.000     30.000    55.6225   -20.0773   -34.0454   120.0962    -0.1480    -3.0001   -41.6214     0.0000   400.0000     0.0000     1.0000   300.0000   300.0000   -38.4384    83.0531    -1.9790    -1.4485    20.0000    20.0000    10.0000    20.0000    26.0000    10.0000    16.0000    20.0000    -0.0005     0.0005   159.4164   -41.1662     3.9070    21.1999    14.7000     2.0000     1.0000   300.0050     0.000
     36     2.5000     0.1000    -0.0001     6.2501     24.516     43.000 194311.000     30.000    55.9535   -20.0773   -34.2541   120.0962    -0.1480    -3.0001   -41.3595     0.0000   400.0000     0.0000     1.0000   300.0000   300.0000   -38.4785    83.4255    -1.9790    -1.4485    20.0000    20.0000    10.0000    20.0000    26.0000    10.0000    16.0000    20.0000    -0.0005     0.0005   159.4164   -41.1662     3.9071    20.9501    14.7000     2.0000     1.0000   300.0010     0.000
     37     2.5001     0.1000    -0.0001     6.0000     24.902     23.000 194311.000     30.000    56.2903   -20.0773   -34.4667   120.0962    -0.1480    -3.0001   -41.0963     0.0000   400.0000     0.0000     1.0000   300.0000   300.0000   -38.5168    83.8003    -1.9790    -1.4485    20.0000    20.0000    10.0000    20.0000    26.0000    10.0000    16.0000    20.0000    -0.0005     0.0005   159.4164   -41.1662     3.9071    20.7001    14.7000     2.0000     1.0000   299.9980     0.000
