# scan = 33
# date = 9/4/2024
# time = 9:16:05 PM
# proposal = 32905
# experiment = Effects of electric field on phonon dispersion and lifetimes of poled PMN-30PT
# experiment_number = 812
# command = scan h 2.5 k 0.1 l 0 e 15 0 0.25 preset mcu 30
# builtin_command = scan h 2.5 k 0.1 l 0 e 15 0 0.25 preset mcu 30
# users = George Yumnam, Michael Manley, Puspa Upreti, Raphael Hermann, SHAOFEI WANG
# local_contact = Songxue Chi
# scan_title = h2.5 k0.1 l0 scans
# monochromator = PG002
# analyzer = Pg002
# sense = -+-
# collimation = 48-40-40-120
# samplename = PMN-30PT
# sampletype = crystal
# samplemosaic = 30.000000
# latticeconstants = 4.023634,4.023634,4.023634,90.000000,90.000000,90.000000
# ubmatrix = -0.008055,-0.248252,-0.008588,-0.248328,0.007840,0.006285,-0.006007,0.008785,-0.248304
# mode = 0
# plane_normal = 0.034555,-0.025290,0.999083
# ubconf = UB04Sep2024_115522AM.ini
# preset_type = normal
# preset_channel = mcu
# preset_value = 30.000000
# def_x = e
# def_y = detector
# col_headers =
#   Pt.          h          k          l          e       time   detector    monitor        mcu focal_length         m1         m2   mcrystal       marc     mtrans     mfocus       ampl         dc       freq     output       temp     temp_2         s1         s2        sgl        sgu        bbb        bbl        bbr        bbt        bab        bal        bar        bat        stl        stu         a1         a2          q         ei         ef   ampl_out output_state        vti     sample
      1     2.5000     0.1000    -0.0001    15.0016     27.775     29.000 194311.000     30.000    46.9938   -20.0773   -28.6391   120.0962    -0.1480    -3.0001   -49.8518     0.0000     0.0000     0.0000     1.0000   300.0000   300.0000   -36.3253    72.2060    -1.9790    -1.4485    20.0000    20.0000    10.0000    20.0000    26.0000    10.0000    16.0000    20.0000    -0.0005     0.0005   159.4164   -41.1662     3.9070    29.7016    14.7000     2.0000     1.0000   300.0560     0.000
      2     2.5000     0.1000    -0.0001    14.7495     27.370     42.000 194311.000     30.000    47.1929   -20.0773   -28.7640   120.0962    -0.1480    -3.0001   -49.6254     0.0000     0.0000     0.0000     1.0000   300.0000   300.0000   -36.4024    72.4912    -1.9790    -1.4485    20.0000    20.0000    10.0000    20.0000    26.0000    10.0000    16.0000    20.0000    -0.0005     0.0005   159.4164   -41.1662     3.9070    29.4495    14.7000     2.0000     1.0000   300.0220     0.000
      3     2.5001     0.0999    -0.0001    14.4999     27.019     27.000 194311.000     30.000    47.3944   -20.0773   -28.8893   120.0962    -0.1480    -3.0001   -49.3982     0.0000     0.0000     0.0000     1.0000   300.0000   300.0000   -36.4791    72.7814    -1.9790    -1.4485    20.0000    20.0000    10.0000    20.0000    26.0000    10.0000    16.0000    20.0000    -0.0005     0.0005   159.4164   -41.1662     3.9072    29.1999    14.7000     2.0000     1.0000   300.0240     0.000
      4     2.5000     0.1000    -0.0001    14.2506     26.678     33.000 194311.000     30.000    47.5986   -20.0773   -29.0161   120.0962    -0.1480    -3.0001   -49.1702     0.0000     0.0000     0.0000     1.0000   300.0000   300.0000   -36.5545    73.0623    -1.9790    -1.4485    20.0000    20.0000    10.0000    20.0000    26.0000    10.0000    16.0000    20.0000    -0.0005     0.0005   159.4164   -41.1662     3.9070    28.9507    14.7000     2.0000     1.0000   299.9930     0.000
      5     2.5000     0.1000    -0.0001    13.9994     26.236     49.000 194311.000     30.000    47.8055   -20.0773   -29.1457   120.0962    -0.1480    -3.0001   -48.9414     0.0000     0.0000     0.0000     1.0000   300.0000   300.0000   -36.6295    73.3531    -1.9790    -1.4485    20.0000    20.0000    10.0000    20.0000    26.0000    10.0000    16.0000    20.0000    -0.0005     0.0005   159.4164   -41.1662     3.9071    28.6994    14.7000     2.0000     1.0000   300.0060     0.000
      6     2.5000     0.1000    -0.0001    13.7503     25.912     34.000 194311.000     30.000    48.0151   -20.0773   -29.2758   120.0962    -0.1480    -3.0001   -48.7117     0.0000     0.0000     0.0000     1.0000   300.0000   300.0000   -36.7041    73.6407    -1.9790    -1.4485    20.0000    20.0000    10.0000    20.0000    26.0000    10.0000    16.0000    20.0000    -0.0005     0.0005   159.4164   -41.1662     3.9070    28.4503    14.7000     2.0000     1.0000   299.9840     0.000
      7     2.5000     0.1000    -0.0001    13.5004     25.677     36.000 194311.000     30.000    48.2274   -20.0773   -29.4082   120.0962    -0.1480    -3.0001   -48.4811     0.0000     0.0000     0.0000     1.0000   300.0000   300.0000   -36.7771    73.9348    -1.9790    -1.4485    20.0000    20.0000    10.0000    20.0000    26.0000    10.0000    16.0000    20.0000    -0.0005     0.0005   159.4164   -41.1662     3.9071    28.2004    14.7000     2.0000     1.0000   299.9970     0.000
      8     2.5000     0.1000    -0.0001    13.2496     25.825     27.000 194311.000     30.000    48.4427   -20.0773   -29.5428   120.0962    -0.1480    -3.0001   -48.2497     0.0000     0.0000     0.0000     1.0000   300.0000   300.0000   -36.8503    74.2271    -1.9790    -1.4485    20.0000    20.0000    10.0000    20.0000    26.0000    10.0000    16.0000    20.0000    -0.0005     0.0005   159.4164   -41.1662     3.9070    27.9496    14.7000     2.0000     1.0000   299.9860     0.000
      9     2.5000     0.1000    -0.0001    13.0000     26.092     46.000 194311.000     30.000    48.6608   -20.0773   -29.6786   120.0962    -0.1480    -3.0001   -48.0174     0.0000     0.0000     0.0000     1.0000   300.0000   300.0000   -36.9220    74.5245    -1.9790    -1.4485    20.0000    20.0000    10.0000    20.0000    26.0000    10.0000    16.0000    20.0000    -0.0005     0.0005   159.4164   -41.1662     3.9071    27.7000    14.7000     2.0000     1.0000   300.0010     0.000
     10     2.5000     0.1000    -0.0001    12.7500     26.349     31.000 194311.000     30.000    48.8819   -20.0773   -29.8166   120.0962    -0.1480    -3.0001   -47.7842     0.0000     0.0000     0.0000     1.0000   300.0000   300.0000   -36.9936    74.8222    -1.9790    -1.4485    20.0000    20.0000    10.0000    20.0000    26.0000    10.0000    16.0000    20.0000    -0.0005     0.0005   159.4164   -41.1662     3.9071    27.4500    14.7000     2.0000     1.0000   299.9500     0.000
     11     2.5000     0.1000    -0.0001    12.4999     26.622     44.000 194311.000     30.000    49.1060   -20.0773   -29.9566   120.0962    -0.1480    -3.0001   -47.5501     0.0000     0.0000     0.0000     1.0000   300.0000   300.0000   -37.0635    75.1222    -1.9790    -1.4485    20.0000    20.0000    10.0000    20.0000    26.0000    10.0000    16.0000    20.0000    -0.0005     0.0005   159.4164   -41.1662     3.9071    27.1999    14.7000     2.0000     1.0000   299.9850     0.000
     12     2.5000     0.1000    -0.0001    12.2504     27.087     33.000 194311.000     30.000    49.3332   -20.0773   -30.0982   120.0962    -0.1480    -3.0001   -47.3151     0.0000     0.0000     0.0000     1.0000   300.0000   300.0000   -37.1331    75.4224    -1.9790    -1.4485    20.0000    20.0000    10.0000    20.0000    26.0000    10.0000    16.0000    20.0000    -0.0005     0.0005   159.4164   -41.1662     3.9071    26.9504    14.7000     2.0000     1.0000   299.9230     0.000
     13     2.5000     0.1000    -0.0001    11.9997     27.350     43.000 194311.000     30.000    49.5636   -20.0773   -30.2425   120.0962    -0.1480    -3.0001   -47.0791     0.0000     0.0000     0.0000     1.0000   300.0000   300.0000   -37.2019    75.7271    -1.9790    -1.4485    20.0000    20.0000    10.0000    20.0000    26.0000    10.0000    16.0000    20.0000    -0.0005     0.0005   159.4164   -41.1662     3.9071    26.6997    14.7000     2.0000     1.0000   300.0120     0.000
     14     2.5000     0.1000    -0.0001    11.7499     27.321     55.000 194311.000     30.000    49.7973   -20.0773   -30.3884   120.0962    -0.1480    -3.0001   -46.8422     0.0000     0.0000     0.0000     1.0000   300.0000   300.0000   -37.2696    76.0310    -1.9790    -1.4485    20.0000    20.0000    10.0000    20.0000    26.0000    10.0000    16.0000    20.0000    -0.0005     0.0005   159.4164   -41.1662     3.9070    26.4499    14.7000     2.0000     1.0000   299.9400     0.000
     15     2.5000     0.1000    -0.0001    11.5001     27.076     62.000 194311.000     30.000    50.0343   -20.0773   -30.5364   120.0962    -0.1480    -3.0001   -46.6044     0.0000     0.0000     0.0000     1.0000   300.0000   300.0000   -37.3366    76.3411    -1.9790    -1.4485    20.0000    20.0000    10.0000    20.0000    26.0000    10.0000    16.0000    20.0000    -0.0005     0.0005   159.4164   -41.1662     3.9071    26.2001    14.7000     2.0000     1.0000   300.0140     0.000
     16     2.5000     0.1000    -0.0001    11.2501     26.958     51.000 194311.000     30.000    50.2748   -20.0773   -30.6868   120.0962    -0.1480    -3.0001   -46.3655     0.0000     0.0000     0.0000     1.0000   300.0000   300.0000   -37.4024    76.6501    -1.9790    -1.4485    20.0000    20.0000    10.0000    20.0000    26.0000    10.0000    16.0000    20.0000    -0.0005     0.0005   159.4164   -41.1662     3.9070    25.9501    14.7000     2.0000     1.0000   300.0010     0.000
     17     2.5000     0.1000    -0.0001    11.0000     26.882     62.000 194311.000     30.000    50.5187   -20.0773   -30.8395   120.0962    -0.1480    -3.0001   -46.1257     0.0000     0.0000     0.0000     1.0000   300.0000   300.0000   -37.4675    76.9641    -1.9790    -1.4485    20.0000    20.0000    10.0000    20.0000    26.0000    10.0000    16.0000    20.0000    -0.0005     0.0005   159.4164   -41.1662     3.9071    25.7000    14.7000     2.0000     1.0000   299.9950     0.000
     18     2.5000     0.1000    -0.0001    10.7501     26.645     51.000 194311.000     30.000    50.7662   -20.0773   -30.9943   120.0962    -0.1480    -3.0001   -45.8849     0.0000     0.0000     0.0000     1.0000   300.0000   300.0000   -37.5318    77.2765    -1.9790    -1.4485    20.0000    20.0000    10.0000    20.0000    26.0000    10.0000    16.0000    20.0000    -0.0005     0.0005   159.4164   -41.1662     3.9070    25.4501    14.7000     2.0000     1.0000   300.0050     0.000
     19     2.5001     0.0999    -0.0001    10.5002     26.603     49.000 194311.000     30.000    51.0174   -20.0773   -31.1514   120.0962    -0.1480    -3.0001   -45.6430     0.0000     0.0000     0.0000     1.0000   300.0000   300.0000   -37.5946    77.5989    -1.9790    -1.4485    20.0000    20.0000    10.0000    20.0000    26.0000    10.0000    16.0000    20.0000    -0.0005     0.0005   159.4164   -41.1662     3.9072    25.2003    14.7000     2.0000     1.0000   300.0020     0.000
     20     2.5000     0.1000    -0.0001    10.2503     26.654     43.000 194311.000     30.000    51.2724   -20.0773   -31.3111   120.0962    -0.1480    -3.0001   -45.4002     0.0000     0.0000     0.0000     1.0000   300.0000   300.0000   -37.6566    77.9159    -1.9790    -1.4485    20.0000    20.0000    10.0000    20.0000    26.0000    10.0000    16.0000    20.0000    -0.0005     0.0005   159.4164   -41.1662     3.9071    24.9503    14.7000     2.0000     1.0000   300.0100     0.000
     21     2.5000     0.1000    -0.0001     9.9999     26.831     41.000 194311.000     30.000    51.5312   -20.0773   -31.4735   120.0962    -0.1480    -3.0001   -45.1562     0.0000     0.0000     0.0000     1.0000   300.0000   300.0000   -37.7172    78.2367    -1.9790    -1.4485    20.0000    20.0000    10.0000    20.0000    26.0000    10.0000    16.0000    20.0000    -0.0005     0.0005   159.4164   -41.1662     3.9070    24.6999    14.7000     2.0000     1.0000   300.0160     0.000
     22     2.5000     0.1000    -0.0001     9.7499     27.122     42.000 194311.000     30.000    51.7940   -20.0773   -31.6382   120.0962    -0.1480    -3.0001   -44.9112     0.0000     0.0000     0.0000     1.0000   300.0000   300.0000   -37.7775    78.5629    -1.9790    -1.4485    20.0000    20.0000    10.0000    20.0000    26.0000    10.0000    16.0000    20.0000    -0.0005     0.0005   159.4164   -41.1662     3.9071    24.4499    14.7000     2.0000     1.0000   299.9970     0.000
     23     2.5000     0.1000    -0.0001     9.4998     27.781     36.000 194311.000     30.000    52.0609   -20.0773   -31.8055   120.0962    -0.1480    -3.0001   -44.6652     0.0000     0.0000     0.0000     1.0000   300.0000   300.0000   -37.8361    78.8897    -1.9790    -1.4485    20.0000    20.0000    10.0000    20.0000    26.0000    10.0000    16.0000    20.0000    -0.0005     0.0005   159.4164   -41.1662     3.9070    24.1998    14.7000     2.0000     1.0000   300.0090     0.000
     24     2.5000     0.1000    -0.0001     9.2502     27.894     26.000 194311.000     30.000    52.3319   -20.0773   -31.9752   120.0962    -0.1480    -3.0001   -44.4180     0.0000     0.0000     0.0000     1.0000   300.0000   300.0000   -37.8936    79.2196    -1.9790    -1.4485    20.0000    20.0000    10.0000    20.0000    26.0000    10.0000    16.0000    20.0000    -0.0005     0.0005   159.4164   -41.1662     3.9070    23.9503    14.7000     2.0000     1.0000   300.0120     0.000
     25     2.5000     0.1000    -0.0001     8.9999     27.706     38.000 194311.000     30.000    52.6071   -20.0773   -32.1482   120.0962    -0.1480    -3.0001   -44.1697     0.0000     0.0000     0.0000     1.0000   300.0000   300.0000   -37.9496    79.5535    -1.9790    -1.4485    20.0000    20.0000    10.0000    20.0000    26.0000    10.0000    16.0000    20.0000    -0.0005     0.0005   159.4164   -41.1662     3.9071    23.6999    14.7000     2.0000     1.0000   299.9930     0.000
     26     2.5000     0.1000    -0.0001     8.7501     27.160     53.000 194311.000     30.000    52.8868   -20.0773   -32.3237   120.0962    -0.1480    -3.0001   -43.9203     0.0000     0.0000     0.0000     1.0000   300.0000   300.0000   -38.0049    79.8883    -1.9790    -1.4485    20.0000    20.0000    10.0000    20.0000    26.0000    10.0000    16.0000    20.0000    -0.0005     0.0005   159.4164   -41.1662     3.9070    23.4501    14.7000     2.0000     1.0000   300.0170     0.000
     27     2.5000     0.1000    -0.0001     8.5000     26.266     38.000 194311.000     30.000    53.1710   -20.0773   -32.5022   120.0962    -0.1480    -3.0001   -43.6697     0.0000     0.0000     0.0000     1.0000   300.0000   300.0000   -38.0591    80.2271    -1.9790    -1.4485    20.0000    20.0000    10.0000    20.0000    26.0000    10.0000    16.0000    20.0000    -0.0005     0.0005   159.4164   -41.1662     3.9070    23.2000    14.7000     2.0000     1.0000   299.9290     0.000
     28     2.5000     0.1000    -0.0001     8.2499     25.483     31.000 194311.000     30.000    53.4598   -20.0773   -32.6837   120.0962    -0.1480    -3.0001   -43.4180     0.0000     0.0000     0.0000     1.0000   300.0000   300.0000   -38.1111    80.5702    -1.9790    -1.4485    20.0000    20.0000    10.0000    20.0000    26.0000    10.0000    16.0000    20.0000    -0.0005     0.0005   159.4164   -41.1662     3.9071    22.9499    14.7000     2.0000     1.0000   300.0200     0.000
     29     2.5000     0.1000    -0.0001     8.0000     24.862     29.000 194311.000     30.000    53.7534   -20.0773   -32.8682   120.0962    -0.1480    -3.0001   -43.1651     0.0000     0.0000     0.0000     1.0000   300.0000   300.0000   -38.1624    80.9157    -1.9790    -1.4485    20.0000    20.0000    10.0000    20.0000    26.0000    10.0000    16.0000    20.0000    -0.0005     0.0005   159.4164   -41.1662     3.9071    22.7000    14.7000     2.0000     1.0000   299.9310     0.000
     30     2.5000     0.1000    -0.0001     7.7501     24.389     22.000 194311.000     30.000    54.0519   -20.0773   -33.0559   120.0962    -0.1480    -3.0001   -42.9109     0.0000     0.0000     0.0000     1.0000   300.0000   300.0000   -38.2122    81.2617    -1.9790    -1.4485    20.0000    20.0000    10.0000    20.0000    26.0000    10.0000    16.0000    20.0000    -0.0005     0.0005   159.4164   -41.1662     3.9070    22.4501    14.7000     2.0000     1.0000   300.0000     0.000
     31     2.5000     0.1000    -0.0001     7.4999     24.063     32.000 194311.000     30.000    54.3554   -20.0773   -33.2470   120.0962    -0.1480    -3.0001   -42.6556     0.0000     0.0000     0.0000     1.0000   300.0000   300.0000   -38.2606    81.6141    -1.9790    -1.4485    20.0000    20.0000    10.0000    20.0000    26.0000    10.0000    16.0000    20.0000    -0.0005     0.0005   159.4164   -41.1662     3.9070    22.1999    14.7000     2.0000     1.0000   299.9370     0.000
     32     2.5000     0.1000    -0.0001     7.2503     24.168     34.000 194311.000     30.000    54.6640   -20.0773   -33.4411   120.0962    -0.1480    -3.0001   -42.3989     0.0000     0.0000     0.0000     1.0000   300.0000   300.0000   -38.3071    81.9704    -1.9790    -1.4485    20.0000    20.0000    10.0000    20.0000    26.0000    10.0000    16.0000    20.0000    -0.0005     0.0005   159.4164   -41.1662     3.9071    21.9503    14.7000     2.0000     1.0000   300.0090     0.000
     33     2.5000     0.1000    -0.0001     6.9997     24.187     36.000 194311.000     30.000    54.9780   -20.0773   -33.6393   120.0962    -0.1480    -3.0001   -42.1410     0.0000     0.0000     0.0000     1.0000   300.0000   300.0000   -38.3526    82.3283    -1.9790    -1.4485    20.0000    20.0000    10.0000    20.0000    26.0000    10.0000    16.0000    20.0000    -0.0005     0.0005   159.4164   -41.1662     3.9071    21.6997    14.7000     2.0000     1.0000   300.0090     0.000
     34     2.5000     0.1000    -0.0001     6.7501     24.380     38.000 194311.000     30.000    55.2975   -20.0773   -33.8403   120.0962    -0.1480    -3.0001   -41.8818     0.0000     0.0000     0.0000     1.0000   300.0000   300.0000   -38.3961    82.6887    -1.9790    -1.4485    20.0000    20.0000    10.0000    20.0000    26.0000    10.0000    16.0000    20.0000    -0.0005     0.0005   159.4164   -41.1662     3.9070    21.4501    14.7000     2.0000     1.0000   300.0030     0.000
     35     2.4999     0.1000    -0.0001     6.4999     24.445     35.000 194311.000     30.000    55.6225   -20.0773   -34.0454   120.0962    -0.1480    -3.0001   -41.6214     0.0000     0.0000     0.0000     1.0000   300.0000   300.0000   -38.4383    83.0533    -1.9790    -1.4485    20.0000    20.0000    10.0000    20.0000    26.0000    10.0000    16.0000    20.0000    -0.0005     0.0005   159.4164   -41.1662     3.9070    21.1999    14.7000     2.0000     1.0000   299.9940     0.000
     36     2.5000     0.1000    -0.0001     6.2500     24.736     33.000 194311.000     30.000    55.9535   -20.0773   -34.2541   120.0962    -0.1480    -3.0001   -41.3595     0.0000     0.0000     0.0000     1.0000   300.0000   300.0000   -38.4786    83.4245    -1.9790    -1.4485    20.0000    20.0000    10.0000    20.0000    26.0000    10.0000    16.0000    20.0000    -0.0005     0.0005   159.4164   -41.1662     3.9070    20.9500    14.7000     2.0000     1.0000   300.0050     0.000
     37     2.5000     0.1000    -0.0001     6.0001     25.112     27.000 194311.000     30.000    56.2903   -20.0773   -34.4667   120.0962    -0.1480    -3.0001   -41.0963     0.0000     0.0000     0.0000     1.0000   300.0000   300.0000   -38.5168    83.7995    -1.9790    -1.4485    20.0000    20.0000    10.0000    20.0000    26.0000    10.0000    16.0000    20.0000    -0.0005     0.0005   159.4164   -41.1662     3.9071    20.7001    14.7000     2.0000     1.0000   299.9900     0.000
