# scan = 707
# date = 5/29/2023
# time = 6:31:43 AM
# proposal = 9879
# experiment = HB-1A  - Backend upgrade commissioning
# experiment_number = 978
# command = scan h 0.0008 k 0.0008 l 3.7 4.3 0.03
# builtin_command = scan h 0.0008 k 0.0008 l 3.7 4.3 0.03
# users = Feng Ye, John Carruth, Adam Aczel, Songxue Chi, Jaime Fernandez-Baca, Masaaki Matsuda, Tao Hong, Travis Williams, Wei Tian, Michael Cox
# local_contact = Wei Tian, Adam Aczel
# scan_title = La2Ni7, ( 0.000242 0.00024 3.999793 ), 40'-20'-S-20'-20' colli
# monochromator = PG002
# analyzer = Pg002
# sense = +-+
# collimation = 40-40-40-80
# samplename = Si powdre, Si crystal, FeGa alloy, La2Ni7 crystal, Ba2.8Sr0.2CoSn2O9 crystal
# sampletype = crystal
# samplemosaic = 30.000000
# latticeconstants = 5.084792,5.084792,24.669626,90.000000,90.000000,120.000000
# ubmatrix = -0.007838,-0.010887,0.040486,-0.193443,-0.199303,-0.001943,0.118692,-0.108301,-0.000494
# mode = 0
# plane_normal = 0.013424,0.025807,0.999577
# ubconf = UB27May2023_80143PM.ini
# preset_type = normal 
# preset_channel = mcu
# preset_value = 2.000000
# def_x = l
# def_y = detector
# col_headers = 
#   Pt.          h          k          l       time   detector    monitor        mcu         m2   rad_coll         s1         s2        sgl        sgu   slitb_bt   slitb_lf   slitb_rt   slitb_tp   slita_bt   slita_lf   slita_rt   slita_tp        stl        stu         sz         a1         a2          q         ei         ef          e
      1     0.0008     0.0008     3.7001      2.023      1.000  14221.000      2.000    41.5367     0.0149    -7.4664   -20.5592    -0.7691     1.4795    26.0000     4.0000     7.0000    26.0000    24.0000    10.0000     7.0000    24.0000     0.0014    -0.0025     0.0024    20.7703    41.5465     0.9424    14.4503    14.4437     0.006
      2     0.0008     0.0008     3.7297      1.998      2.000  14221.000      2.000    41.5367     0.0149    -7.5506   -20.7257    -0.7691     1.4795    26.0000     4.0000     7.0000    26.0000    24.0000    10.0000     7.0000    24.0000     0.0014    -0.0025     0.0024    20.7702    41.5465     0.9499    14.4503    14.4437     0.006
      3     0.0008     0.0008     3.7598      2.007      3.000  14221.000      2.000    41.5367     0.0149    -7.6362   -20.8946    -0.7691     1.4795    26.0000     4.0000     7.0000    26.0000    24.0000    10.0000     7.0000    24.0000     0.0014    -0.0025     0.0024    20.7702    41.5465     0.9576    14.4503    14.4437     0.006
      4     0.0008     0.0008     3.7898      2.001      1.000  14221.000      2.000    41.5367     0.0149    -7.7205   -21.0632    -0.7691     1.4795    26.0000     4.0000     7.0000    26.0000    24.0000    10.0000     7.0000    24.0000     0.0014    -0.0025     0.0024    20.7702    41.5465     0.9652    14.4503    14.4437     0.006
      5     0.0008     0.0008     3.8201      2.010      4.000  14221.000      2.000    41.5367     0.0149    -7.8061   -21.2337    -0.7691     1.4795    26.0000     4.0000     7.0000    26.0000    24.0000    10.0000     7.0000    24.0000     0.0014    -0.0025     0.0024    20.7702    41.5465     0.9730    14.4503    14.4437     0.006
      6     0.0008     0.0008     3.8502      1.969      3.000  14221.000      2.000    41.5367     0.0149    -7.8902   -21.4031    -0.7691     1.4795    26.0000     4.0000     7.0000    26.0000    24.0000    10.0000     7.0000    24.0000     0.0014    -0.0025     0.0024    20.7701    41.5465     0.9806    14.4503    14.4437     0.006
      7     0.0008     0.0008     3.8801      2.014      3.000  14221.000      2.000    41.5367     0.0149    -7.9759   -21.5709    -0.7691     1.4795    26.0000     4.0000     7.0000    26.0000    24.0000    10.0000     7.0000    24.0000     0.0014    -0.0025     0.0023    20.7701    41.5466     0.9882    14.4503    14.4437     0.006
      8     0.0008     0.0008     3.9094      1.992      5.000  14221.000      2.000    41.5367     0.0149    -8.0602   -21.7361    -0.7692     1.4795    26.0000     4.0000     7.0000    26.0000    24.0000    10.0000     7.0000    24.0000     0.0014    -0.0025     0.0024    20.7701    41.5466     0.9957    14.4503    14.4437     0.006
      9     0.0008     0.0008     3.9398      2.002    112.000  14221.000      2.000    41.5367     0.0149    -8.1459   -21.9067    -0.7691     1.4795    26.0000     4.0000     7.0000    26.0000    24.0000    10.0000     7.0000    24.0000     0.0014    -0.0025     0.0024    20.7701    41.5466     1.0034    14.4503    14.4437     0.006
     10     0.0008     0.0008     3.9695      1.985   1016.000  14221.000      2.000    41.5367     0.0149    -8.2303   -22.0743    -0.7691     1.4795    26.0000     4.0000     7.0000    26.0000    24.0000    10.0000     7.0000    24.0000     0.0014    -0.0024     0.0024    20.7701    41.5466     1.0110    14.4503    14.4437     0.006
     11     0.0008     0.0008     3.9996      2.027   2573.000  14221.000      2.000    41.5367     0.0149    -8.3161   -22.2434    -0.7691     1.4795    26.0000     4.0000     7.0000    26.0000    24.0000    10.0000     7.0000    24.0000     0.0014    -0.0025     0.0024    20.7700    41.5466     1.0187    14.4503    14.4437     0.006
     12     0.0008     0.0008     4.0300      2.019   2126.000  14221.000      2.000    41.5367     0.0149    -8.4012   -22.4148    -0.7691     1.4795    26.0000     4.0000     7.0000    26.0000    24.0000    10.0000     7.0000    24.0000     0.0014    -0.0024     0.0024    20.7701    41.5466     1.0264    14.4503    14.4437     0.006
     13     0.0008     0.0008     4.0603      1.987    767.000  14221.000      2.000    41.5367     0.0149    -8.4864   -22.5855    -0.7691     1.4795    26.0000     4.0000     7.0000    26.0000    24.0000    10.0000     7.0000    24.0000     0.0014    -0.0025     0.0024    20.7700    41.5466     1.0341    14.4503    14.4437     0.006
     14     0.0008     0.0008     4.0906      2.006    102.000  14221.000      2.000    41.5367     0.0149    -8.5713   -22.7564    -0.7691     1.4795    26.0000     4.0000     7.0000    26.0000    24.0000    10.0000     7.0000    24.0000     0.0014    -0.0024     0.0024    20.7700    41.5466     1.0418    14.4503    14.4437     0.006
     15     0.0008     0.0008     4.1206      1.975      5.000  14221.000      2.000    41.5367     0.0149    -8.6567   -22.9255    -0.7691     1.4795    26.0000     4.0000     7.0000    26.0000    24.0000    10.0000     7.0000    24.0000     0.0014    -0.0024     0.0024    20.7700    41.5466     1.0495    14.4503    14.4437     0.006
     16     0.0008     0.0008     4.1505      2.011      6.000  14221.000      2.000    41.5367     0.0149    -8.7412   -23.0943    -0.7691     1.4795    26.0000     4.0000     7.0000    26.0000    24.0000    10.0000     7.0000    24.0000     0.0014    -0.0025     0.0024    20.7700    41.5466     1.0571    14.4503    14.4437     0.006
     17     0.0008     0.0008     4.1800      2.007      4.000  14221.000      2.000    41.5367     0.0149    -8.8270   -23.2607    -0.7691     1.4795    26.0000     4.0000     7.0000    26.0000    24.0000    10.0000     7.0000    24.0000     0.0014    -0.0025     0.0024    20.7700    41.5466     1.0646    14.4503    14.4437     0.006
     18     0.0008     0.0008     4.2096      2.025      4.000  14221.000      2.000    41.5367     0.0149    -8.9114   -23.4275    -0.7691     1.4795    26.0000     4.0000     7.0000    26.0000    24.0000    10.0000     7.0000    24.0000     0.0014    -0.0025     0.0024    20.7700    41.5466     1.0722    14.4503    14.4437     0.006
     19     0.0008     0.0008     4.2398      2.019      3.000  14221.000      2.000    41.5367     0.0149    -8.9969   -23.5983    -0.7691     1.4795    26.0000     4.0000     7.0000    26.0000    24.0000    10.0000     7.0000    24.0000     0.0014    -0.0025     0.0024    20.7700    41.5466     1.0799    14.4503    14.4437     0.006
     20     0.0008     0.0008     4.2700      2.013      1.000  14221.000      2.000    41.5367     0.0149    -9.0818   -23.7688    -0.7691     1.4795    26.0000     4.0000     7.0000    26.0000    24.0000    10.0000     7.0000    24.0000     0.0014    -0.0025     0.0024    20.7700    41.5466     1.0875    14.4503    14.4437     0.006
     21     0.0008     0.0008     4.2998      2.008      2.000  14221.000      2.000    41.5367     0.0149    -9.1672   -23.9372    -0.7691     1.4795    26.0000     4.0000     7.0000    26.0000    24.0000    10.0000     7.0000    24.0000     0.0014    -0.0025     0.0024    20.7700    41.5466     1.0951    14.4503    14.4437     0.006
# Sum of Counts = 6743
# Center of Mass = 4.012074+/-0.069098
# Full Width Half-Maximum = 0.067062+/-0.046798
# 6:36:55 AM  5/29/2023   scan completed.
