# scan = 710
# date = 5/29/2023
# time = 6:47:28 AM
# proposal = 9879
# experiment = HB-1A  - Backend upgrade commissioning
# experiment_number = 978
# command = scan h 0.002 k 0.002 l 3.7 4.3 0.03
# builtin_command = scan h 0.002 k 0.002 l 3.7 4.3 0.03
# users = Feng Ye, John Carruth, Adam Aczel, Songxue Chi, Jaime Fernandez-Baca, Masaaki Matsuda, Tao Hong, Travis Williams, Wei Tian, Michael Cox
# local_contact = Wei Tian, Adam Aczel
# scan_title = La2Ni7, ( 0.000242 0.00024 3.999793 ), 40'-20'-S-20'-20' colli
# monochromator = PG002
# analyzer = Pg002
# sense = +-+
# collimation = 40-40-40-80
# samplename = Si powdre, Si crystal, FeGa alloy, La2Ni7 crystal, Ba2.8Sr0.2CoSn2O9 crystal
# sampletype = crystal
# samplemosaic = 30.000000
# latticeconstants = 5.084792,5.084792,24.669626,90.000000,90.000000,120.000000
# ubmatrix = -0.007838,-0.010887,0.040486,-0.193443,-0.199303,-0.001943,0.118692,-0.108301,-0.000494
# mode = 0
# plane_normal = 0.013424,0.025807,0.999577
# ubconf = UB27May2023_80143PM.ini
# preset_type = normal 
# preset_channel = mcu
# preset_value = 2.000000
# def_x = l
# def_y = detector
# col_headers = 
#   Pt.          h          k          l       time   detector    monitor        mcu         m2   rad_coll         s1         s2        sgl        sgu   slitb_bt   slitb_lf   slitb_rt   slitb_tp   slita_bt   slita_lf   slita_rt   slita_tp        stl        stu         sz         a1         a2          q         ei         ef          e
      1     0.0020     0.0020     3.7006      1.986      1.000  14221.000      2.000    41.5367     0.0149    -7.2860   -20.5623    -0.7691     1.4795    26.0000     4.0000     7.0000    26.0000    24.0000    10.0000     7.0000    24.0000     0.0014    -0.0025     0.0024    20.7703    41.5465     0.9425    14.4503    14.4437     0.006
      2     0.0020     0.0020     3.7295      2.044      2.000  14221.000      2.000    41.5367     0.0149    -7.3719   -20.7245    -0.7691     1.4795    26.0000     4.0000     7.0000    26.0000    24.0000    10.0000     7.0000    24.0000     0.0014    -0.0025     0.0023    20.7702    41.5465     0.9499    14.4503    14.4437     0.006
      3     0.0020     0.0020     3.7598      2.010      5.000  14221.000      2.000    41.5367     0.0149    -7.4586   -20.8947    -0.7691     1.4795    26.0000     4.0000     7.0000    26.0000    24.0000    10.0000     7.0000    24.0000     0.0014    -0.0025     0.0024    20.7702    41.5465     0.9576    14.4503    14.4437     0.006
      4     0.0020     0.0020     3.7899      1.976      1.000  14221.000      2.000    41.5367     0.0149    -7.5453   -21.0639    -0.7691     1.4795    26.0000     4.0000     7.0000    26.0000    24.0000    10.0000     7.0000    24.0000     0.0014    -0.0025     0.0024    20.7702    41.5465     0.9653    14.4503    14.4437     0.006
      5     0.0020     0.0020     3.8202      2.006      1.000  14221.000      2.000    41.5367     0.0149    -7.6312   -21.2345    -0.7691     1.4795    26.0000     4.0000     7.0000    26.0000    24.0000    10.0000     7.0000    24.0000     0.0014    -0.0025     0.0024    20.7701    41.5465     0.9730    14.4503    14.4437     0.006
      6     0.0020     0.0020     3.8501      1.980      0.000  14221.000      2.000    41.5367     0.0149    -7.7179   -21.4024    -0.7691     1.4795    26.0000     4.0000     7.0000    26.0000    24.0000    10.0000     7.0000    24.0000     0.0014    -0.0025     0.0024    20.7701    41.5465     0.9806    14.4503    14.4437     0.006
      7     0.0020     0.0020     3.8801      1.996      2.000  14221.000      2.000    41.5367     0.0149    -7.8037   -21.5715    -0.7691     1.4795    26.0000     4.0000     7.0000    26.0000    24.0000    10.0000     7.0000    24.0000     0.0014    -0.0025     0.0023    20.7701    41.5465     0.9883    14.4503    14.4437     0.006
      8     0.0020     0.0020     3.9095      2.012      7.000  14221.000      2.000    41.5367     0.0149    -7.8898   -21.7366    -0.7691     1.4795    26.0000     4.0000     7.0000    26.0000    24.0000    10.0000     7.0000    24.0000     0.0014    -0.0025     0.0024    20.7701    41.5465     0.9957    14.4503    14.4437     0.006
      9     0.0020     0.0020     3.9397      1.990      2.000  14221.000      2.000    41.5367     0.0149    -7.9768   -21.9067    -0.7691     1.4795    26.0000     4.0000     7.0000    26.0000    24.0000    10.0000     7.0000    24.0000     0.0014    -0.0025     0.0024    20.7701    41.5466     1.0034    14.4503    14.4437     0.006
     10     0.0020     0.0020     3.9695      1.989      9.000  14221.000      2.000    41.5367     0.0149    -8.0626   -22.0744    -0.7691     1.4795    26.0000     4.0000     7.0000    26.0000    24.0000    10.0000     7.0000    24.0000     0.0014    -0.0025     0.0024    20.7701    41.5466     1.0110    14.4503    14.4437     0.006
     11     0.0020     0.0020     3.9996      1.990     25.000  14221.000      2.000    41.5367     0.0149    -8.1485   -22.2438    -0.7691     1.4795    26.0000     4.0000     7.0000    26.0000    24.0000    10.0000     7.0000    24.0000     0.0014    -0.0025     0.0024    20.7700    41.5466     1.0187    14.4503    14.4437     0.006
     12     0.0020     0.0020     4.0300      2.020     35.000  14221.000      2.000    41.5367     0.0149    -8.2355   -22.4151    -0.7691     1.4795    26.0000     4.0000     7.0000    26.0000    24.0000    10.0000     7.0000    24.0000     0.0014    -0.0025     0.0024    20.7700    41.5466     1.0264    14.4503    14.4437     0.006
     13     0.0020     0.0020     4.0602      2.012      6.000  14221.000      2.000    41.5367     0.0149    -8.3221   -22.5854    -0.7691     1.4795    26.0000     4.0000     7.0000    26.0000    24.0000    10.0000     7.0000    24.0000     0.0014    -0.0025     0.0024    20.7700    41.5466     1.0341    14.4503    14.4437     0.006
     14     0.0020     0.0020     4.0905      1.994      2.000  14221.000      2.000    41.5367     0.0149    -8.4081   -22.7561    -0.7691     1.4795    26.0000     4.0000     7.0000    26.0000    24.0000    10.0000     7.0000    24.0000     0.0014    -0.0025     0.0024    20.7700    41.5466     1.0418    14.4503    14.4437     0.006
     15     0.0020     0.0020     4.1200      2.018      4.000  14221.000      2.000    41.5367     0.0149    -8.4949   -22.9226    -0.7691     1.4795    26.0000     4.0000     7.0000    26.0000    24.0000    10.0000     7.0000    24.0000     0.0014    -0.0025     0.0024    20.7700    41.5466     1.0494    14.4503    14.4437     0.006
     16     0.0020     0.0020     4.1505      1.996      1.000  14221.000      2.000    41.5367     0.0149    -8.5809   -23.0944    -0.7691     1.4795    26.0000     4.0000     7.0000    26.0000    24.0000    10.0000     7.0000    24.0000     0.0014    -0.0025     0.0024    20.7700    41.5466     1.0571    14.4503    14.4437     0.006
     17     0.0020     0.0020     4.1802      2.001      2.000  14221.000      2.000    41.5367     0.0149    -8.6678   -23.2620    -0.7691     1.4795    26.0000     4.0000     7.0000    26.0000    24.0000    10.0000     7.0000    24.0000     0.0014    -0.0025     0.0024    20.7700    41.5466     1.0647    14.4503    14.4437     0.006
     18     0.0020     0.0020     4.2095      2.011      4.000  14221.000      2.000    41.5367     0.0149    -8.7531   -23.4276    -0.7691     1.4795    26.0000     4.0000     7.0000    26.0000    24.0000    10.0000     7.0000    24.0000     0.0014    -0.0025     0.0024    20.7700    41.5466     1.0722    14.4503    14.4437     0.006
     19     0.0020     0.0020     4.2396      2.006      1.000  14221.000      2.000    41.5367     0.0149    -8.8393   -23.5972    -0.7691     1.4795    26.0000     4.0000     7.0000    26.0000    24.0000    10.0000     7.0000    24.0000     0.0014    -0.0025     0.0024    20.7700    41.5466     1.0798    14.4503    14.4437     0.006
     20     0.0020     0.0020     4.2699      2.004      3.000  14221.000      2.000    41.5367     0.0149    -8.9266   -23.7684    -0.7691     1.4795    26.0000     4.0000     7.0000    26.0000    24.0000    10.0000     7.0000    24.0000     0.0014    -0.0025     0.0024    20.7700    41.5466     1.0875    14.4503    14.4437     0.006
     21     0.0020     0.0020     4.2997      2.002      2.000  14221.000      2.000    41.5367     0.0149    -9.0119   -23.9369    -0.7691     1.4795    26.0000     4.0000     7.0000    26.0000    24.0000    10.0000     7.0000    24.0000     0.0014    -0.0025     0.0024    20.7700    41.5466     1.0951    14.4503    14.4437     0.006
# Sum of Counts = 115
# Center of Mass = 4.011827+/-0.529174
# Full Width Half-Maximum = 0.230881+/-0.186415
# 6:52:58 AM  5/29/2023   scan completed.
