# scan = 598
# date = 5/28/2023
# time = 3:04:54 AM
# proposal = 9879
# experiment = HB-1A  - Backend upgrade commissioning
# experiment_number = 978
# command = th2th 3 -3 0.15
# builtin_command = scan s2 @(s2)+3 @(s2)+-3 0.150000 s1 @(s1)+(3/2) @(s1)+(-3/2) 0.075000
# users = Feng Ye, John Carruth, Adam Aczel, Songxue Chi, Jaime Fernandez-Baca, Masaaki Matsuda, Tao Hong, Travis Williams, Wei Tian, Michael Cox
# local_contact = Wei Tian, Adam Aczel
# scan_title = La2Ni7, ( 0.999942 0.999905 4.997399 ), th2th, 40'-20'-S-20'-20' colli
# monochromator = PG002
# analyzer = Pg002
# sense = +-+
# collimation = 40-40-40-80
# samplename = Si powdre, Si crystal, FeGa alloy, La2Ni7 crystal, Ba2.8Sr0.2CoSn2O9 crystal
# sampletype = crystal
# samplemosaic = 30.000000
# latticeconstants = 5.084792,5.084792,24.669626,90.000000,90.000000,120.000000
# ubmatrix = -0.007838,-0.010887,0.040486,-0.193443,-0.199303,-0.001943,0.118692,-0.108301,-0.000494
# mode = 0
# plane_normal = 0.013424,0.025807,0.999577
# ubconf = UB27May2023_80143PM.ini
# preset_type = normal 
# preset_channel = mcu
# preset_value = 10.000000
# def_x = s2
# def_y = detector
# col_headers = 
#   Pt.         s2         s1       time   detector    monitor        mcu         m2   rad_coll        sgl        sgu   slitb_bt   slitb_lf   slitb_rt   slitb_tp   slita_bt   slita_lf   slita_rt   slita_tp        stl        stu         sz         a1         a2          q          h          k          l         ei         ef          e
      1   -60.5209    35.2067     10.271     75.000  71101.000     10.000    41.5367     0.0149    -0.7692     1.4795    26.0000     4.0000     7.0000    26.0000    24.0000    10.0000     7.0000    24.0000     0.0014    -0.0024     0.0024    20.7701    41.5465     2.6612     0.9573     0.9573     4.7843    14.4503    14.4437     0.006
      2   -60.6714    35.1329     10.224    132.000  71101.000     10.000    41.5367     0.0149    -0.7692     1.4795    26.0000     4.0000     7.0000    26.0000    24.0000    10.0000     7.0000    24.0000     0.0014    -0.0024     0.0024    20.7701    41.5465     2.6672     0.9595     0.9595     4.7949    14.4503    14.4437     0.006
      3   -60.8209    35.0571     10.264    157.000  71101.000     10.000    41.5367     0.0149    -0.7692     1.4795    26.0000     4.0000     7.0000    26.0000    24.0000    10.0000     7.0000    24.0000     0.0014    -0.0024     0.0024    20.7700    41.5465     2.6732     0.9616     0.9616     4.8057    14.4503    14.4437     0.006
      4   -60.9691    34.9826     10.229    123.000  71101.000     10.000    41.5367     0.0149    -0.7692     1.4795    26.0000     4.0000     7.0000    26.0000    24.0000    10.0000     7.0000    24.0000     0.0014    -0.0024     0.0024    20.7701    41.5465     2.6791     0.9637     0.9637     4.8164    14.4503    14.4437     0.006
      5   -61.1200    34.9073     10.262    141.000  71101.000     10.000    41.5367     0.0149    -0.7692     1.4795    26.0000     4.0000     7.0000    26.0000    24.0000    10.0000     7.0000    24.0000     0.0014    -0.0024     0.0024    20.7700    41.5465     2.6850     0.9659     0.9659     4.8271    14.4503    14.4437     0.006
      6   -61.2667    34.8327     10.185    105.000  71101.000     10.000    41.5367     0.0149    -0.7692     1.4795    26.0000     4.0000     7.0000    26.0000    24.0000    10.0000     7.0000    24.0000     0.0014    -0.0024     0.0024    20.7700    41.5465     2.6909     0.9680     0.9679     4.8378    14.4503    14.4437     0.006
      7   -61.4206    34.7573     10.163     69.000  71101.000     10.000    41.5367     0.0149    -0.7692     1.4795    26.0000     4.0000     7.0000    26.0000    24.0000    10.0000     7.0000    24.0000     0.0014    -0.0024     0.0024    20.7700    41.5465     2.6970     0.9702     0.9701     4.8485    14.4503    14.4437     0.006
      8   -61.5698    34.6823     10.155     62.000  71101.000     10.000    41.5367     0.0149    -0.7692     1.4795    26.0000     4.0000     7.0000    26.0000    24.0000    10.0000     7.0000    24.0000     0.0014    -0.0024     0.0024    20.7700    41.5465     2.7029     0.9723     0.9723     4.8592    14.4503    14.4437     0.006
      9   -61.7218    34.6069     10.209     36.000  71101.000     10.000    41.5367     0.0149    -0.7692     1.4795    26.0000     4.0000     7.0000    26.0000    24.0000    10.0000     7.0000    24.0000     0.0014    -0.0024     0.0024    20.7700    41.5465     2.7089     0.9745     0.9744     4.8699    14.4503    14.4437     0.006
     10   -61.8705    34.5321     10.142     18.000  71101.000     10.000    41.5367     0.0149    -0.7692     1.4795    26.0000     4.0000     7.0000    26.0000    24.0000    10.0000     7.0000    24.0000     0.0014    -0.0024     0.0024    20.7700    41.5465     2.7148     0.9766     0.9766     4.8806    14.4503    14.4438     0.006
     11   -62.0227    34.4568     10.250     13.000  71101.000     10.000    41.5367     0.0149    -0.7692     1.4795    26.0000     4.0000     7.0000    26.0000    24.0000    10.0000     7.0000    24.0000     0.0014    -0.0025     0.0024    20.7699    41.5465     2.7208     0.9788     0.9787     4.8913    14.4503    14.4438     0.006
     12   -62.1726    34.3822     10.290     10.000  71101.000     10.000    41.5367     0.0149    -0.7692     1.4795    26.0000     4.0000     7.0000    26.0000    24.0000    10.0000     7.0000    24.0000     0.0014    -0.0024     0.0024    20.7699    41.5465     2.7267     0.9809     0.9809     4.9019    14.4503    14.4437     0.006
     13   -62.3206    34.3068     10.148     13.000  71101.000     10.000    41.5367     0.0149    -0.7692     1.4795    26.0000     4.0000     7.0000    26.0000    24.0000    10.0000     7.0000    24.0000     0.0014    -0.0024     0.0024    20.7699    41.5465     2.7325     0.9830     0.9829     4.9126    14.4503    14.4438     0.006
     14   -62.4726    34.2326     10.269     12.000  71101.000     10.000    41.5367     0.0149    -0.7692     1.4795    26.0000     4.0000     7.0000    26.0000    24.0000    10.0000     7.0000    24.0000     0.0014    -0.0024     0.0024    20.7699    41.5465     2.7385     0.9851     0.9851     4.9231    14.4503    14.4437     0.006
     15   -62.6192    34.1571     10.120     11.000  71101.000     10.000    41.5367     0.0149    -0.7692     1.4795    26.0000     4.0000     7.0000    26.0000    24.0000    10.0000     7.0000    24.0000     0.0014    -0.0024     0.0024    20.7699    41.5465     2.7443     0.9872     0.9872     4.9338    14.4503    14.4437     0.006
     16   -62.7684    34.0825     10.277     10.000  71101.000     10.000    41.5367     0.0149    -0.7692     1.4795    26.0000     4.0000     7.0000    26.0000    24.0000    10.0000     7.0000    24.0000     0.0014    -0.0024     0.0024    20.7699    41.5465     2.7502     0.9893     0.9893     4.9444    14.4503    14.4438     0.006
     17   -62.9201    34.0072     10.166     13.000  71101.000     10.000    41.5367     0.0149    -0.7692     1.4795    26.0000     4.0000     7.0000    26.0000    24.0000    10.0000     7.0000    24.0000     0.0014    -0.0024     0.0024    20.7699    41.5465     2.7561     0.9915     0.9914     4.9550    14.4503    14.4438     0.006
     18   -63.0679    33.9327     10.146     16.000  71101.000     10.000    41.5367     0.0149    -0.7692     1.4795    26.0000     4.0000     7.0000    26.0000    24.0000    10.0000     7.0000    24.0000     0.0014    -0.0024     0.0024    20.7699    41.5465     2.7619     0.9936     0.9935     4.9656    14.4503    14.4438     0.006
     19   -63.2181    33.8576     10.226     30.000  71101.000     10.000    41.5367     0.0149    -0.7692     1.4795    26.0000     4.0000     7.0000    26.0000    24.0000    10.0000     7.0000    24.0000     0.0014    -0.0024     0.0024    20.7699    41.5465     2.7678     0.9957     0.9956     4.9762    14.4503    14.4438     0.006
     20   -63.3692    33.7824     10.211     49.000  71101.000     10.000    41.5367     0.0149    -0.7692     1.4795    26.0000     4.0000     7.0000    26.0000    24.0000    10.0000     7.0000    24.0000     0.0014    -0.0024     0.0024    20.7699    41.5465     2.7738     0.9978     0.9978     4.9868    14.4503    14.4438     0.006
     21   -63.5193    33.7070     10.140     76.000  71101.000     10.000    41.5367     0.0149    -0.7692     1.4795    26.0000     4.0000     7.0000    26.0000    24.0000    10.0000     7.0000    24.0000     0.0014    -0.0024     0.0024    20.7699    41.5465     2.7797     0.9999     0.9999     4.9974    14.4503    14.4438     0.006
     22   -63.6713    33.6321     10.235    105.000  71101.000     10.000    41.5367     0.0149    -0.7692     1.4795    26.0000     4.0000     7.0000    26.0000    24.0000    10.0000     7.0000    24.0000     0.0014    -0.0024     0.0024    20.7699    41.5465     2.7856     1.0021     1.0020     5.0080    14.4503    14.4438     0.006
     23   -63.8219    33.5569     10.231    111.000  71101.000     10.000    41.5367     0.0149    -0.7692     1.4795    26.0000     4.0000     7.0000    26.0000    24.0000    10.0000     7.0000    24.0000     0.0014    -0.0024     0.0024    20.7699    41.5465     2.7915     1.0042     1.0042     5.0185    14.4503    14.4438     0.006
     24   -63.9721    33.4815     10.208     98.000  71101.000     10.000    41.5367     0.0149    -0.7692     1.4795    26.0000     4.0000     7.0000    26.0000    24.0000    10.0000     7.0000    24.0000     0.0014    -0.0024     0.0024    20.7699    41.5465     2.7974     1.0063     1.0063     5.0292    14.4503    14.4438     0.006
     25   -64.1218    33.4061     10.269     46.000  71101.000     10.000    41.5367     0.0149    -0.7692     1.4795    26.0000     4.0000     7.0000    26.0000    24.0000    10.0000     7.0000    24.0000     0.0014    -0.0024     0.0024    20.7699    41.5465     2.8032     1.0084     1.0084     5.0398    14.4503    14.4438     0.006
     26   -64.2702    33.3324     10.201     42.000  71101.000     10.000    41.5367     0.0149    -0.7692     1.4795    26.0000     4.0000     7.0000    26.0000    24.0000    10.0000     7.0000    24.0000     0.0014    -0.0024     0.0024    20.7699    41.5465     2.8090     1.0105     1.0105     5.0501    14.4503    14.4438     0.006
     27   -64.4198    33.2569     10.174     18.000  71101.000     10.000    41.5367     0.0149    -0.7692     1.4795    26.0000     4.0000     7.0000    26.0000    24.0000    10.0000     7.0000    24.0000     0.0014    -0.0024     0.0024    20.7699    41.5465     2.8149     1.0126     1.0125     5.0607    14.4503    14.4438     0.006
     28   -64.5694    33.1820     10.182     25.000  71101.000     10.000    41.5367     0.0149    -0.7692     1.4795    26.0000     4.0000     7.0000    26.0000    24.0000    10.0000     7.0000    24.0000     0.0014    -0.0024     0.0023    20.7699    41.5465     2.8207     1.0147     1.0146     5.0712    14.4503    14.4438     0.006
     29   -64.7200    33.1072     10.222     12.000  71101.000     10.000    41.5367     0.0149    -0.7692     1.4795    26.0000     4.0000     7.0000    26.0000    24.0000    10.0000     7.0000    24.0000     0.0014    -0.0024     0.0024    20.7699    41.5465     2.8266     1.0168     1.0168     5.0817    14.4503    14.4438     0.006
     30   -64.8702    33.0328     10.327     14.000  71101.000     10.000    41.5367     0.0149    -0.7692     1.4795    26.0000     4.0000     7.0000    26.0000    24.0000    10.0000     7.0000    24.0000     0.0014    -0.0024     0.0024    20.7699    41.5465     2.8324     1.0189     1.0189     5.0921    14.4503    14.4438     0.006
     31   -65.0188    32.9573     10.270     17.000  71101.000     10.000    41.5367     0.0149    -0.7692     1.4795    26.0000     4.0000     7.0000    26.0000    24.0000    10.0000     7.0000    24.0000     0.0014    -0.0024     0.0024    20.7699    41.5465     2.8382     1.0210     1.0209     5.1027    14.4503    14.4438     0.006
     32   -65.1699    32.8827     10.218      9.000  71101.000     10.000    41.5367     0.0149    -0.7692     1.4795    26.0000     4.0000     7.0000    26.0000    24.0000    10.0000     7.0000    24.0000     0.0014    -0.0024     0.0024    20.7699    41.5465     2.8440     1.0231     1.0231     5.1131    14.4503    14.4438     0.006
     33   -65.3209    32.8072     10.209     13.000  71101.000     10.000    41.5367     0.0149    -0.7692     1.4795    26.0000     4.0000     7.0000    26.0000    24.0000    10.0000     7.0000    24.0000     0.0014    -0.0024     0.0024    20.7699    41.5465     2.8499     1.0252     1.0252     5.1236    14.4503    14.4438     0.006
     34   -65.4713    32.7325     10.190     17.000  71101.000     10.000    41.5367     0.0149    -0.7692     1.4795    26.0000     4.0000     7.0000    26.0000    24.0000    10.0000     7.0000    24.0000     0.0014    -0.0024     0.0024    20.7698    41.5465     2.8557     1.0273     1.0273     5.1340    14.4503    14.4438     0.006
     35   -65.6226    32.6570     10.182     25.000  71101.000     10.000    41.5367     0.0149    -0.7692     1.4795    26.0000     4.0000     7.0000    26.0000    24.0000    10.0000     7.0000    24.0000     0.0014    -0.0024     0.0024    20.7699    41.5465     2.8616     1.0294     1.0294     5.1445    14.4503    14.4438     0.006
     36   -65.7708    32.5821     10.229      7.000  71101.000     10.000    41.5367     0.0149    -0.7692     1.4795    26.0000     4.0000     7.0000    26.0000    24.0000    10.0000     7.0000    24.0000     0.0014    -0.0024     0.0024    20.7699    41.5465     2.8673     1.0315     1.0314     5.1550    14.4503    14.4438     0.006
     37   -65.9171    32.5063     10.200     23.000  71101.000     10.000    41.5367     0.0149    -0.7692     1.4795    26.0000     4.0000     7.0000    26.0000    24.0000    10.0000     7.0000    24.0000     0.0014    -0.0024     0.0024    20.7699    41.5465     2.8730     1.0335     1.0334     5.1656    14.4503    14.4438     0.006
     38   -66.0679    32.4315     10.163     18.000  71101.000     10.000    41.5367     0.0149    -0.7692     1.4795    26.0000     4.0000     7.0000    26.0000    24.0000    10.0000     7.0000    24.0000     0.0014    -0.0024     0.0024    20.7699    41.5465     2.8788     1.0356     1.0355     5.1760    14.4503    14.4438     0.006
     39   -66.2196    32.3567     10.282     13.000  71101.000     10.000    41.5367     0.0149    -0.7692     1.4795    26.0000     4.0000     7.0000    26.0000    24.0000    10.0000     7.0000    24.0000     0.0014    -0.0024     0.0024    20.7699    41.5465     2.8847     1.0377     1.0377     5.1864    14.4503    14.4438     0.006
     40   -66.3693    32.2820     10.276     18.000  71101.000     10.000    41.5367     0.0149    -0.7692     1.4795    26.0000     4.0000     7.0000    26.0000    24.0000    10.0000     7.0000    24.0000     0.0014    -0.0024     0.0024    20.7699    41.5465     2.8905     1.0398     1.0397     5.1967    14.4503    14.4438     0.006
     41   -66.5184    32.2071     10.214     29.000  71101.000     10.000    41.5367     0.0149    -0.7692     1.4795    26.0000     4.0000     7.0000    26.0000    24.0000    10.0000     7.0000    24.0000     0.0014    -0.0024     0.0024    20.7698    41.5465     2.8962     1.0418     1.0418     5.2071    14.4503    14.4438     0.006
# Sum of Counts = 1831
# Center of Mass = -62.583067+/-2.068761
# Full Width Half-Maximum = 3.454494+/-0.821604
# 3:16:30 AM  5/28/2023   scan completed.
