# scan = 850
# date = 5/30/2023
# time = 2:45:15 AM
# proposal = 9879
# experiment = HB-1A  - Backend upgrade commissioning
# experiment_number = 978
# command = scan h 1.1 k 1.1 l 1.1 e 2 -16 -0.25 preset mcu 120
# builtin_command = scan h 1.1 k 1.1 l 1.1 e 2 -16 -0.25 preset mcu 120
# users = Feng Ye, John Carruth, Adam Aczel, Songxue Chi, Jaime Fernandez-Baca, Masaaki Matsuda, Tao Hong, Travis Williams, Wei Tian, Michael Cox
# local_contact = Wei Tian, Adam Aczel
# scan_title = E scan at Q=(1.1 1.1 1.1), 40'-40'-S-40'-80' coll
# monochromator = PG002
# analyzer = Pg002
# sense = +-+
# collimation = 40-40-40-80
# samplename = Si powdre, Si crystal, FeGa alloy, La2Ni7 crystal, Ba2.8Sr0.2CoSn2O9 crystal
# sampletype = crystal
# samplemosaic = 30.000000
# latticeconstants = 5.419666,5.419666,5.419666,90.000000,90.000000,90.000000
# ubmatrix = 0.112527,0.102287,0.104500,-0.073949,-0.073950,0.152013,0.126152,-0.134588,-0.004105
# mode = 0
# plane_normal = 0.039245,0.000005,0.999230
# ubconf = UB29May2023_80143PM.ini
# preset_type = normal 
# preset_channel = mcu
# preset_value = 120.000000
# def_x = e
# def_y = detector
# col_headers = 
#   Pt.          h          k          l          e       time   detector    monitor        mcu         m2   rad_coll         s1         s2        sgl        sgu   slitb_bt   slitb_lf   slitb_rt   slitb_tp   slita_bt   slita_lf   slita_rt   slita_tp        stl        stu         sz         a1         a2          q         ei         ef
      1     1.1002     1.1002     1.0992     2.0073    118.136     31.000 853201.000    120.000    41.5367     0.0149   -30.7942   -51.2504    -2.2487     0.0007    26.0000     5.0000     7.0000    26.0000    24.0000     9.0000     5.0000    20.0000     0.0018    -0.0026     0.0022    22.4600    44.9304     2.2086    14.4503    12.443
      2     1.1000     1.1000     1.0999     1.7508    118.076     29.000 853201.000    120.000    41.5367     0.0149   -30.1183   -51.0276    -2.2487     0.0007    26.0000     5.0000     7.0000    26.0000    24.0000     9.0000     5.0000    20.0000     0.0018    -0.0026     0.0022    22.2253    44.4499     2.2088    14.4503    12.699
      3     1.1000     1.1000     1.1000     1.5001    118.305     37.000 853201.000    120.000    41.5367     0.0149   -29.4404   -50.8031    -2.2487     0.0007    26.0000     5.0000     7.0000    26.0000    24.0000     9.0000     5.0000    20.0000     0.0018    -0.0026     0.0022    21.9974    43.9948     2.2088    14.4503    12.950
      4     1.1000     1.1000     1.0999     1.2511    118.153     23.000 853201.000    120.000    41.5367     0.0149   -28.7671   -50.5777    -2.2487     0.0007    26.0000     5.0000     7.0000    26.0000    24.0000     9.0000     5.0000    20.0000     0.0018    -0.0026     0.0022    21.7771    43.5565     2.2088    14.4503    13.199
      5     1.1000     1.1000     1.0999     1.0008    118.413     41.000 853201.000    120.000    41.5367     0.0149   -28.0978   -50.3519    -2.2487     0.0007    26.0000     5.0000     7.0000    26.0000    24.0000     9.0000     5.0000    20.0000     0.0018    -0.0026     0.0022    21.5636    43.1288     2.2088    14.4503    13.449
      6     1.1000     1.1000     1.0999     0.7511    118.201     60.000 853201.000    120.000    41.5367     0.0149   -27.4328   -50.1254    -2.2487     0.0007    26.0000     5.0000     7.0000    26.0000    24.0000     9.0000     5.0000    20.0000     0.0018    -0.0026     0.0022    21.3573    42.7145     2.2087    14.4503    13.699
      7     1.1000     1.1000     1.0999     0.5013    118.417    105.000 853201.000    120.000    41.5367     0.0149   -26.7713   -49.8991    -2.2487     0.0007    26.0000     5.0000     7.0000    26.0000    24.0000     9.0000     5.0000    20.0000     0.0018    -0.0026     0.0022    21.1558    42.3116     2.2088    14.4503    13.949
      8     1.1000     1.1000     1.1000     0.2504    118.520    133.000 853201.000    120.000    41.5367     0.0149   -26.1136   -49.6716    -2.2487     0.0007    26.0000     5.0000     7.0000    26.0000    24.0000     9.0000     5.0000    20.0000     0.0018    -0.0026     0.0022    20.9580    41.9185     2.2088    14.4503    14.199
      9     1.1000     1.1000     1.0999     0.0010    118.170    174.000 853201.000    120.000    41.5367     0.0149   -25.4597   -49.4433    -2.2487     0.0007    26.0000     5.0000     7.0000    26.0000    24.0000     9.0000     5.0000    20.0000     0.0018    -0.0026     0.0022    20.7677    41.5382     2.2088    14.4503    14.449
     10     1.1000     1.1000     1.1000    -0.2500    118.280    150.000 853201.000    120.000    41.5367     0.0149   -24.8088   -49.2159    -2.2487     0.0007    26.0000     5.0000     7.0000    26.0000    24.0000     9.0000     5.0000    20.0000     0.0018    -0.0026     0.0022    20.5819    41.1658     2.2088    14.4503    14.700
     11     1.1001     1.1000     1.1000    -0.4999    118.237    120.000 853201.000    120.000    41.5367     0.0149   -24.1614   -48.9880    -2.2487     0.0007    26.0000     5.0000     7.0000    26.0000    24.0000     9.0000     5.0000    20.0000     0.0018    -0.0026     0.0022    20.4029    40.8049     2.2089    14.4503    14.950
     12     1.1000     1.1000     1.1000    -0.7507    118.180     73.000 853201.000    120.000    41.5367     0.0149   -23.5172   -48.7569    -2.2487     0.0007    26.0000     5.0000     7.0000    26.0000    24.0000     9.0000     5.0000    20.0000     0.0018    -0.0026     0.0022    20.2273    40.4519     2.2088    14.4503    15.201
     13     1.0999     1.0999     1.1000    -1.0006    118.353     39.000 853201.000    120.000    41.5367     0.0149   -22.8761   -48.5254    -2.2487     0.0007    26.0000     5.0000     7.0000    26.0000    24.0000     9.0000     5.0000    20.0000     0.0018    -0.0026     0.0022    20.0554    40.1093     2.2088    14.4503    15.450
     14     1.1000     1.1000     1.1000    -1.2501    118.238     39.000 853201.000    120.000    41.5367     0.0149   -22.2378   -48.2967    -2.2487     0.0007    26.0000     5.0000     7.0000    26.0000    24.0000     9.0000     5.0000    20.0000     0.0018    -0.0026     0.0022    19.8873    39.7758     2.2088    14.4503    15.700
     15     1.1000     1.1000     1.1000    -1.4999    118.260     32.000 853201.000    120.000    41.5367     0.0149   -21.6024   -48.0657    -2.2487     0.0007    26.0000     5.0000     7.0000    26.0000    24.0000     9.0000     5.0000    20.0000     0.0018    -0.0026     0.0022    19.7253    39.4501     2.2088    14.4503    15.950
     16     1.1000     1.1000     1.1001    -1.7509    118.397     41.000 853201.000    120.000    41.5367     0.0149   -20.9695   -47.8363    -2.2487     0.0007    26.0000     5.0000     7.0000    26.0000    24.0000     9.0000     5.0000    20.0000     0.0018    -0.0026     0.0022    19.5657    39.1308     2.2089    14.4503    16.201
     17     1.1000     1.1000     1.1000    -1.9998    118.382     33.000 853201.000    120.000    41.5367     0.0149   -20.3398   -47.6052    -2.2487     0.0007    26.0000     5.0000     7.0000    26.0000    24.0000     9.0000     5.0000    20.0000     0.0018    -0.0026     0.0022    19.4116    38.8217     2.2088    14.4503    16.450
     18     1.1000     1.1000     1.1000    -2.2496    118.229     34.000 853201.000    120.000    41.5367     0.0149   -19.7114   -47.3731    -2.2487     0.0007    26.0000     5.0000     7.0000    26.0000    24.0000     9.0000     5.0000    20.0000     0.0018    -0.0026     0.0022    19.2593    38.5186     2.2088    14.4503    16.699
     19     1.1000     1.1000     1.1000    -2.5002    118.094     35.000 853201.000    120.000    41.5367     0.0149   -19.0859   -47.1405    -2.2487     0.0007    26.0000     5.0000     7.0000    26.0000    24.0000     9.0000     5.0000    20.0000     0.0018    -0.0026     0.0022    19.1121    38.2217     2.2088    14.4503    16.950
     20     1.1000     1.1000     1.1000    -2.7503    118.403     25.000 853201.000    120.000    41.5367     0.0149   -18.4630   -46.9088    -2.2487     0.0007    26.0000     5.0000     7.0000    26.0000    24.0000     9.0000     5.0000    20.0000     0.0018    -0.0026     0.0022    18.9663    37.9321     2.2089    14.4503    17.200
     21     1.1000     1.1000     1.1000    -2.9995    118.217     26.000 853201.000    120.000    41.5367     0.0149   -17.8418   -46.6757    -2.2487     0.0007    26.0000     5.0000     7.0000    26.0000    24.0000     9.0000     5.0000    20.0000     0.0018    -0.0026     0.0022    18.8244    37.6500     2.2088    14.4503    17.449
     22     1.1000     1.1000     1.1000    -3.2496    118.330     29.000 853201.000    120.000    41.5367     0.0149   -17.2230   -46.4419    -2.2487     0.0007    26.0000     5.0000     7.0000    26.0000    24.0000     9.0000     5.0000    20.0000     0.0018    -0.0026     0.0022    18.6860    37.3732     2.2088    14.4503    17.699
     23     1.1000     1.1000     1.1000    -3.5000    118.217     29.000 853201.000    120.000    41.5367     0.0149   -16.6059   -46.2090    -2.2487     0.0007    26.0000     5.0000     7.0000    26.0000    24.0000     9.0000     5.0000    20.0000     0.0018    -0.0026     0.0022    18.5507    37.1019     2.2088    14.4503    17.950
     24     1.1000     1.1000     1.1000    -3.7498    118.232     34.000 853201.000    120.000    41.5367     0.0149   -15.9908   -45.9754    -2.2487     0.0007    26.0000     5.0000     7.0000    26.0000    24.0000     9.0000     5.0000    20.0000     0.0018    -0.0026     0.0022    18.4198    36.8373     2.2088    14.4503    18.200
     25     1.1000     1.1000     1.0999    -3.9992    118.044     32.000 853201.000    120.000    41.5367     0.0149   -15.3776   -45.7411    -2.2487     0.0007    26.0000     5.0000     7.0000    26.0000    24.0000     9.0000     5.0000    20.0000     0.0018    -0.0026     0.0022    18.2892    36.5786     2.2088    14.4503    18.449
     26     1.1000     1.1000     1.1000    -4.2499    118.220     35.000 853201.000    120.000    41.5367     0.0149   -14.7660   -45.5070    -2.2487     0.0007    26.0000     5.0000     7.0000    26.0000    24.0000     9.0000     5.0000    20.0000     0.0018    -0.0026     0.0022    18.1631    36.3239     2.2088    14.4503    18.700
     27     1.1000     1.1000     1.1000    -4.5000    118.410     23.000 853201.000    120.000    41.5367     0.0149   -14.1558   -45.2725    -2.2487     0.0007    26.0000     5.0000     7.0000    26.0000    24.0000     9.0000     5.0000    20.0000     0.0018    -0.0026     0.0022    18.0377    36.0751     2.2088    14.4503    18.950
     28     1.1000     1.1000     1.1000    -4.7496    118.174     30.000 853201.000    120.000    41.5367     0.0149   -13.5473   -45.0370    -2.2487     0.0007    26.0000     5.0000     7.0000    26.0000    24.0000     9.0000     5.0000    20.0000     0.0018    -0.0026     0.0022    17.9155    35.8318     2.2088    14.4503    19.199
     29     1.1000     1.1000     1.0999    -4.9990    118.157     20.000 853201.000    120.000    41.5367     0.0149   -12.9406   -44.8016    -2.2487     0.0007    26.0000     5.0000     7.0000    26.0000    24.0000     9.0000     5.0000    20.0000     0.0018    -0.0026     0.0022    17.7964    35.5936     2.2088    14.4503    19.449
     30     1.0999     1.0999     1.1000    -5.2498    118.447     19.000 853201.000    120.000    41.5367     0.0149   -12.3352   -44.5628    -2.2487     0.0007    26.0000     5.0000     7.0000    26.0000    24.0000     9.0000     5.0000    20.0000     0.0018    -0.0026     0.0022    17.6793    35.3588     2.2086    14.4503    19.700
     31     1.1000     1.1000     1.1000    -5.5001    117.799     15.000 853201.000    120.000    41.5367     0.0149   -11.7310   -44.3304    -2.2487     0.0007    26.0000     5.0000     7.0000    26.0000    24.0000     9.0000     5.0000    20.0000     0.0018    -0.0026     0.0022    17.5640    35.1290     2.2088    14.4503    19.950
     32     1.1000     1.1000     1.1000    -5.7496    118.521     26.000 853201.000    120.000    41.5367     0.0149   -11.1274   -44.0944    -2.2487     0.0007    26.0000     5.0000     7.0000    26.0000    24.0000     9.0000     5.0000    20.0000     0.0018    -0.0026     0.0022    17.4529    34.9044     2.2088    14.4503    20.199
     33     1.1000     1.1000     1.0999    -5.9992    118.122     13.000 853201.000    120.000    41.5367     0.0149   -10.5260   -43.8578    -2.2487     0.0007    26.0000     5.0000     7.0000    26.0000    24.0000     9.0000     5.0000    20.0000     0.0018    -0.0026     0.0022    17.3422    34.6839     2.2088    14.4503    20.449
     34     1.1000     1.1000     1.1000    -6.2493    118.125     23.000 853201.000    120.000    41.5367     0.0149    -9.9252   -43.6201    -2.2487     0.0007    26.0000     5.0000     7.0000    26.0000    24.0000     9.0000     5.0000    20.0000     0.0018    -0.0026     0.0022    17.2336    34.4672     2.2088    14.4503    20.699
     35     1.1000     1.1000     1.1000    -6.5002    118.009     18.000 853201.000    120.000    41.5367     0.0149    -9.3256   -43.3837    -2.2487     0.0007    26.0000     5.0000     7.0000    26.0000    24.0000     9.0000     5.0000    20.0000     0.0018    -0.0026     0.0022    17.1273    34.2537     2.2089    14.4503    20.950
     36     1.1000     1.1000     1.1000    -6.7496    118.071     22.000 853201.000    120.000    41.5367     0.0149    -8.7267   -43.1446    -2.2487     0.0007    26.0000     5.0000     7.0000    26.0000    24.0000     9.0000     5.0000    20.0000     0.0018    -0.0026     0.0022    17.0223    34.0455     2.2088    14.4503    21.199
     37     1.1000     1.1000     1.0999    -6.9994    118.251     31.000 853201.000    120.000    41.5367     0.0149    -8.1282   -42.9073    -2.2487     0.0007    26.0000     5.0000     7.0000    26.0000    24.0000     9.0000     5.0000    20.0000     0.0018    -0.0026     0.0022    16.9201    33.8406     2.2088    14.4503    21.449
     38     1.1000     1.1000     1.1000    -7.2494    118.226     18.000 853201.000    120.000    41.5367     0.0149    -7.5318   -42.6690    -2.2487     0.0007    26.0000     5.0000     7.0000    26.0000    24.0000     9.0000     5.0000    20.0000     0.0018    -0.0026     0.0022    16.8193    33.6393     2.2088    14.4503    21.699
     39     1.1001     1.1000     1.1000    -7.4993    118.279     21.000 853201.000    120.000    41.5367     0.0149    -6.9351   -42.4312    -2.2487     0.0007    26.0000     5.0000     7.0000    26.0000    24.0000     9.0000     5.0000    20.0000     0.0018    -0.0026     0.0022    16.7207    33.4416     2.2089    14.4503    21.949
     40     1.1000     1.1000     1.1000    -7.7501    118.122     27.000 853201.000    120.000    41.5367     0.0149    -6.3392   -42.1896    -2.2487     0.0007    26.0000     5.0000     7.0000    26.0000    24.0000     9.0000     5.0000    20.0000     0.0018    -0.0026     0.0022    16.6234    33.2467     2.2088    14.4503    22.200
     41     1.1000     1.1000     1.1000    -8.0000    118.354     16.000 853201.000    120.000    41.5367     0.0149    -5.7443   -41.9503    -2.2487     0.0007    26.0000     5.0000     7.0000    26.0000    24.0000     9.0000     5.0000    20.0000     0.0018    -0.0026     0.0022    16.5283    33.0557     2.2088    14.4503    22.450
     42     1.1000     1.1000     1.1000    -8.2495    118.304     30.000 853201.000    120.000    41.5367     0.0149    -5.1497   -41.7102    -2.2487     0.0007    26.0000     5.0000     7.0000    26.0000    24.0000     9.0000     5.0000    20.0000     0.0018    -0.0026     0.0022    16.4344    32.8684     2.2088    14.4503    22.699
     43     1.0999     1.0999     1.0999    -8.4991    118.016     16.000 853201.000    120.000    41.5367     0.0149    -4.5556   -41.4673    -2.2487     0.0007    26.0000     5.0000     7.0000    26.0000    24.0000     9.0000     5.0000    20.0000     0.0018    -0.0026     0.0022    16.3420    32.6842     2.2086    14.4503    22.949
     44     1.1000     1.1000     1.0999    -8.7491    118.322     22.000 853201.000    120.000    41.5367     0.0149    -3.9617   -41.2283    -2.2487     0.0007    26.0000     5.0000     7.0000    26.0000    24.0000     9.0000     5.0000    20.0000     0.0018    -0.0026     0.0022    16.2507    32.5026     2.2087    14.4503    23.199
     45     1.0999     1.0999     1.1000    -8.9996    117.878     22.000 853201.000    120.000    41.5367     0.0149    -3.3685   -40.9856    -2.2487     0.0007    26.0000     5.0000     7.0000    26.0000    24.0000     9.0000     5.0000    20.0000     0.0018    -0.0026     0.0022    16.1621    32.3238     2.2087    14.4503    23.449
     46     1.1000     1.1000     1.1000    -9.2501    118.152     21.000 853201.000    120.000    41.5367     0.0149    -2.7755   -40.7455    -2.2487     0.0007    26.0000     5.0000     7.0000    26.0000    24.0000     9.0000     5.0000    20.0000     0.0018    -0.0026     0.0022    16.0743    32.1478     2.2088    14.4503    23.700
     47     1.1000     1.0999     1.1000    -9.4998    117.847     25.000 853201.000    120.000    41.5367     0.0149    -2.1828   -40.5018    -2.2487     0.0007    26.0000     5.0000     7.0000    26.0000    24.0000     9.0000     5.0000    20.0000     0.0018    -0.0026     0.0022    15.9882    31.9753     2.2087    14.4503    23.950
     48     1.1000     1.0999     1.0999    -9.7490    118.175     22.000 853201.000    120.000    41.5367     0.0149    -1.5901   -40.2593    -2.2487     0.0007    26.0000     5.0000     7.0000    26.0000    24.0000     9.0000     5.0000    20.0000     0.0018    -0.0026     0.0022    15.9023    31.8059     2.2087    14.4503    24.199
     49     1.1000     1.1000     1.0999    -9.9991    118.210     14.000 853201.000    120.000    41.5367     0.0149    -0.9977   -40.0170    -2.2487     0.0007    26.0000     5.0000     7.0000    26.0000    24.0000     9.0000     5.0000    20.0000     0.0018    -0.0026     0.0023    15.8185    31.6385     2.2088    14.4503    24.449
     50     1.1000     1.1000     1.1000   -10.2496    118.034     14.000 853201.000    120.000    41.5367     0.0149    -0.4049   -39.7736    -2.2487     0.0007    26.0000     5.0000     7.0000    26.0000    24.0000     9.0000     5.0000    20.0000     0.0018    -0.0026     0.0022    15.7364    31.4735     2.2088    14.4503    24.699
     51     1.1000     1.1000     1.1000   -10.4997    118.390     17.000 853201.000    120.000    41.5367     0.0149     0.1880   -39.5286    -2.2487     0.0007    26.0000     5.0000     7.0000    26.0000    24.0000     9.0000     5.0000    20.0000     0.0018    -0.0026     0.0022    15.6555    31.3112     2.2088    14.4503    24.950
     52     1.1000     1.1000     1.1000   -10.7502    118.455     19.000 853201.000    120.000    41.5367     0.0149     0.7803   -39.2833    -2.2487     0.0007    26.0000     5.0000     7.0000    26.0000    24.0000     9.0000     5.0000    20.0000     0.0018    -0.0026     0.0022    15.5755    31.1513     2.2088    14.4503    25.200
     53     1.1000     1.1000     1.1000   -11.0000    118.268     16.000 853201.000    120.000    41.5367     0.0149     1.3732   -39.0380    -2.2487     0.0007    26.0000     5.0000     7.0000    26.0000    24.0000     9.0000     5.0000    20.0000     0.0018    -0.0026     0.0022    15.4979    30.9941     2.2088    14.4503    25.450
     54     1.1000     1.1000     1.0999   -11.2487    117.981     19.000 853201.000    120.000    41.5367     0.0149     1.9663   -38.7914    -2.2487     0.0007    26.0000     5.0000     7.0000    26.0000    24.0000     9.0000     5.0000    20.0000     0.0018    -0.0026     0.0022    15.4196    30.8401     2.2087    14.4503    25.699
