# scan = 662
# date = 5/29/2023
# time = 1:53:52 AM
# proposal = 9879
# experiment = HB-1A  - Backend upgrade commissioning
# experiment_number = 978
# command = scan h 0.961 1.039 0.003 k 0.961 1.039 0.003 l -0.08
# builtin_command = scan h 0.961 1.039 0.003 k 0.961 1.039 0.003 l -0.08
# users = Feng Ye, John Carruth, Adam Aczel, Songxue Chi, Jaime Fernandez-Baca, Masaaki Matsuda, Tao Hong, Travis Williams, Wei Tian, Michael Cox
# local_contact = Wei Tian, Adam Aczel
# scan_title = La2Ni7, ( 0.999916 0.99988 -0.002084 ), 40'-20'-S-20'-20' colli
# monochromator = PG002
# analyzer = Pg002
# sense = +-+
# collimation = 40-40-40-80
# samplename = Si powdre, Si crystal, FeGa alloy, La2Ni7 crystal, Ba2.8Sr0.2CoSn2O9 crystal
# sampletype = crystal
# samplemosaic = 30.000000
# latticeconstants = 5.084792,5.084792,24.669626,90.000000,90.000000,120.000000
# ubmatrix = -0.007838,-0.010887,0.040486,-0.193443,-0.199303,-0.001943,0.118692,-0.108301,-0.000494
# mode = 0
# plane_normal = 0.013424,0.025807,0.999577
# ubconf = UB27May2023_80143PM.ini
# preset_type = normal 
# preset_channel = mcu
# preset_value = 2.000000
# def_x = h
# def_y = detector
# col_headers = 
#   Pt.          h          k          l       time   detector    monitor        mcu         m2   rad_coll         s1         s2        sgl        sgu   slitb_bt   slitb_lf   slitb_rt   slitb_tp   slita_bt   slita_lf   slita_rt   slita_tp        stl        stu         sz         a1         a2          q         ei         ef          e
      1     0.9610     0.9610    -0.0800      2.030      1.000  14221.000      2.000    41.5367     0.0149    66.4805   -53.4544    -0.7692     1.4795    26.0000     4.0000     7.0000    26.0000    24.0000    10.0000     7.0000    24.0000     0.0014    -0.0024     0.0023    20.7701    41.5465     2.3751    14.4503    14.4438     0.006
      2     0.9640     0.9639    -0.0798      2.007      0.000  14221.000      2.000    41.5367     0.0149    66.3888   -53.6321    -0.7692     1.4795    26.0000     4.0000     7.0000    26.0000    24.0000    10.0000     7.0000    24.0000     0.0014    -0.0024     0.0023    20.7700    41.5465     2.3824    14.4503    14.4438     0.006
      3     0.9670     0.9670    -0.0801      1.993      4.000  14221.000      2.000    41.5367     0.0149    66.2971   -53.8162    -0.7691     1.4795    26.0000     4.0000     7.0000    26.0000    24.0000    10.0000     7.0000    24.0000     0.0014    -0.0024     0.0023    20.7700    41.5465     2.3899    14.4503    14.4438     0.006
      4     0.9700     0.9700    -0.0802      2.048      6.000  14221.000      2.000    41.5367     0.0149    66.2060   -53.9967    -0.7692     1.4795    26.0000     4.0000     7.0000    26.0000    24.0000    10.0000     7.0000    24.0000     0.0014    -0.0024     0.0023    20.7700    41.5465     2.3974    14.4503    14.4438     0.006
      5     0.9731     0.9730    -0.0802      2.027      5.000  14221.000      2.000    41.5367     0.0149    66.1136   -54.1782    -0.7692     1.4795    26.0000     4.0000     7.0000    26.0000    24.0000    10.0000     7.0000    24.0000     0.0014    -0.0025     0.0023    20.7700    41.5465     2.4048    14.4503    14.4438     0.006
      6     0.9760     0.9760    -0.0800      2.014      9.000  14221.000      2.000    41.5367     0.0149    66.0221   -54.3564    -0.7692     1.4795    26.0000     4.0000     7.0000    26.0000    24.0000    10.0000     7.0000    24.0000     0.0014    -0.0024     0.0023    20.7700    41.5465     2.4121    14.4503    14.4438     0.006
      7     0.9790     0.9789    -0.0797      2.028      6.000  14221.000      2.000    41.5367     0.0149    65.9303   -54.5339    -0.7692     1.4795    26.0000     4.0000     7.0000    26.0000    24.0000    10.0000     7.0000    24.0000     0.0014    -0.0024     0.0023    20.7700    41.5465     2.4194    14.4503    14.4438     0.006
      8     0.9820     0.9820    -0.0799      2.008      7.000  14221.000      2.000    41.5367     0.0149    65.8383   -54.7173    -0.7692     1.4795    26.0000     4.0000     7.0000    26.0000    24.0000    10.0000     7.0000    24.0000     0.0014    -0.0024     0.0023    20.7700    41.5465     2.4269    14.4503    14.4438     0.006
      9     0.9850     0.9849    -0.0800      2.018      8.000  14221.000      2.000    41.5367     0.0149    65.7469   -54.8977    -0.7692     1.4795    26.0000     4.0000     7.0000    26.0000    24.0000    10.0000     7.0000    24.0000     0.0014    -0.0024     0.0023    20.7700    41.5465     2.4343    14.4503    14.4438     0.006
     10     0.9881     0.9880    -0.0801      2.021      9.000  14221.000      2.000    41.5367     0.0149    65.6535   -55.0833    -0.7691     1.4795    26.0000     4.0000     7.0000    26.0000    24.0000    10.0000     7.0000    24.0000     0.0014    -0.0025     0.0023    20.7700    41.5465     2.4419    14.4503    14.4438     0.006
     11     0.9910     0.9910    -0.0799      2.026     29.000  14221.000      2.000    41.5367     0.0149    65.5618   -55.2621    -0.7692     1.4795    26.0000     4.0000     7.0000    26.0000    24.0000    10.0000     7.0000    24.0000     0.0014    -0.0024     0.0023    20.7700    41.5465     2.4492    14.4503    14.4438     0.006
     12     0.9941     0.9940    -0.0802      2.015     60.000  14221.000      2.000    41.5367     0.0149    65.4694   -55.4477    -0.7692     1.4795    26.0000     4.0000     7.0000    26.0000    24.0000    10.0000     7.0000    24.0000     0.0014    -0.0024     0.0023    20.7699    41.5465     2.4567    14.4503    14.4438     0.006
     13     0.9970     0.9970    -0.0800      2.001     55.000  14221.000      2.000    41.5367     0.0149    65.3771   -55.6268    -0.7692     1.4795    26.0000     4.0000     7.0000    26.0000    24.0000    10.0000     7.0000    24.0000     0.0014    -0.0024     0.0023    20.7699    41.5465     2.4641    14.4503    14.4438     0.006
     14     1.0000     1.0000    -0.0801      2.010     51.000  14221.000      2.000    41.5367     0.0149    65.2851   -55.8090    -0.7692     1.4795    26.0000     4.0000     7.0000    26.0000    24.0000    10.0000     7.0000    24.0000     0.0014    -0.0025     0.0023    20.7699    41.5465     2.4715    14.4503    14.4438     0.006
     15     1.0030     1.0030    -0.0801      2.014     39.000  14221.000      2.000    41.5367     0.0149    65.1924   -55.9915    -0.7691     1.4795    26.0000     4.0000     7.0000    26.0000    24.0000    10.0000     7.0000    24.0000     0.0014    -0.0024     0.0023    20.7699    41.5465     2.4789    14.4503    14.4438     0.006
     16     1.0060     1.0059    -0.0798      2.029     25.000  14221.000      2.000    41.5367     0.0149    65.1002   -56.1703    -0.7691     1.4795    26.0000     4.0000     7.0000    26.0000    24.0000    10.0000     7.0000    24.0000     0.0014    -0.0024     0.0023    20.7699    41.5465     2.4862    14.4503    14.4438     0.006
     17     1.0090     1.0090    -0.0799      2.012     16.000  14221.000      2.000    41.5367     0.0149    65.0077   -56.3536    -0.7691     1.4795    26.0000     4.0000     7.0000    26.0000    24.0000    10.0000     7.0000    24.0000     0.0014    -0.0024     0.0023    20.7699    41.5465     2.4936    14.4503    14.4438     0.006
     18     1.0120     1.0120    -0.0800      2.031     13.000  14221.000      2.000    41.5367     0.0149    64.9153   -56.5363    -0.7692     1.4795    26.0000     4.0000     7.0000    26.0000    24.0000    10.0000     7.0000    24.0000     0.0014    -0.0024     0.0023    20.7699    41.5465     2.5010    14.4503    14.4438     0.006
     19     1.0150     1.0149    -0.0798      1.981      6.000  14221.000      2.000    41.5367     0.0149    64.8224   -56.7175    -0.7692     1.4795    26.0000     4.0000     7.0000    26.0000    24.0000    10.0000     7.0000    24.0000     0.0014    -0.0024     0.0023    20.7699    41.5465     2.5084    14.4503    14.4438     0.006
     20     1.0180     1.0179    -0.0799      2.052      5.000  14221.000      2.000    41.5367     0.0149    64.7297   -56.9011    -0.7692     1.4795    26.0000     4.0000     7.0000    26.0000    24.0000    10.0000     7.0000    24.0000     0.0014    -0.0024     0.0023    20.7699    41.5465     2.5158    14.4503    14.4438     0.006
     21     1.0210     1.0210    -0.0802      2.023      1.000  14221.000      2.000    41.5367     0.0149    64.6369   -57.0880    -0.7692     1.4795    26.0000     4.0000     7.0000    26.0000    24.0000    10.0000     7.0000    24.0000     0.0014    -0.0024     0.0024    20.7699    41.5465     2.5234    14.4503    14.4438     0.006
     22     1.0241     1.0240    -0.0802      2.025      3.000  14221.000      2.000    41.5367     0.0149    64.5430   -57.2725    -0.7692     1.4795    26.0000     4.0000     7.0000    26.0000    24.0000    10.0000     7.0000    24.0000     0.0014    -0.0024     0.0023    20.7699    41.5465     2.5309    14.4503    14.4438     0.006
     23     1.0271     1.0270    -0.0803      1.990      4.000  14221.000      2.000    41.5367     0.0149    64.4505   -57.4563    -0.7692     1.4795    26.0000     4.0000     7.0000    26.0000    24.0000    10.0000     7.0000    24.0000     0.0014    -0.0024     0.0023    20.7699    41.5465     2.5383    14.4503    14.4438     0.006
     24     1.0300     1.0300    -0.0801      1.983      4.000  14221.000      2.000    41.5367     0.0149    64.3573   -57.6375    -0.7692     1.4795    26.0000     4.0000     7.0000    26.0000    24.0000    10.0000     7.0000    24.0000     0.0014    -0.0024     0.0023    20.7699    41.5465     2.5456    14.4503    14.4437     0.006
     25     1.0330     1.0330    -0.0799      2.018      4.000  14221.000      2.000    41.5367     0.0149    64.2643   -57.8198    -0.7692     1.4795    26.0000     4.0000     7.0000    26.0000    24.0000    10.0000     7.0000    24.0000     0.0014    -0.0024     0.0023    20.7698    41.5465     2.5530    14.4503    14.4437     0.006
     26     1.0360     1.0360    -0.0799      2.040      2.000  14221.000      2.000    41.5367     0.0149    64.1714   -58.0025    -0.7692     1.4795    26.0000     4.0000     7.0000    26.0000    24.0000    10.0000     7.0000    24.0000     0.0014    -0.0024     0.0023    20.7699    41.5465     2.5604    14.4503    14.4437     0.006
     27     1.0390     1.0390    -0.0801      2.033      0.000  14221.000      2.000    41.5367     0.0149    64.0778   -58.1889    -0.7692     1.4795    26.0000     4.0000     7.0000    26.0000    24.0000    10.0000     7.0000    24.0000     0.0014    -0.0025     0.0023    20.7699    41.5465     2.5679    14.4503    14.4438     0.006
# Sum of Counts = 372
# Center of Mass = 0.998151+/-0.073191
# Full Width Half-Maximum = 0.024271+/-0.022497
# 2:00:21 AM  5/29/2023   scan completed.
