# scan = 686
# date = 5/29/2023
# time = 4:29:32 AM
# proposal = 9879
# experiment = HB-1A  - Backend upgrade commissioning
# experiment_number = 978
# command = scan h 0.961 1.039 0.003 k 0.961 1.039 0.003 l 0.16
# builtin_command = scan h 0.961 1.039 0.003 k 0.961 1.039 0.003 l 0.16
# users = Feng Ye, John Carruth, Adam Aczel, Songxue Chi, Jaime Fernandez-Baca, Masaaki Matsuda, Tao Hong, Travis Williams, Wei Tian, Michael Cox
# local_contact = Wei Tian, Adam Aczel
# scan_title = La2Ni7, ( 0.999916 0.99988 -0.002084 ), 40'-20'-S-20'-20' colli
# monochromator = PG002
# analyzer = Pg002
# sense = +-+
# collimation = 40-40-40-80
# samplename = Si powdre, Si crystal, FeGa alloy, La2Ni7 crystal, Ba2.8Sr0.2CoSn2O9 crystal
# sampletype = crystal
# samplemosaic = 30.000000
# latticeconstants = 5.084792,5.084792,24.669626,90.000000,90.000000,120.000000
# ubmatrix = -0.007838,-0.010887,0.040486,-0.193443,-0.199303,-0.001943,0.118692,-0.108301,-0.000494
# mode = 0
# plane_normal = 0.013424,0.025807,0.999577
# ubconf = UB27May2023_80143PM.ini
# preset_type = normal 
# preset_channel = mcu
# preset_value = 2.000000
# def_x = h
# def_y = detector
# col_headers = 
#   Pt.          h          k          l       time   detector    monitor        mcu         m2   rad_coll         s1         s2        sgl        sgu   slitb_bt   slitb_lf   slitb_rt   slitb_tp   slita_bt   slita_lf   slita_rt   slita_tp        stl        stu         sz         a1         a2          q         ei         ef          e
      1     0.9610     0.9610     0.1601      2.003      1.000  14221.000      2.000    41.5367     0.0149    65.0029   -53.4595    -0.7692     1.4795    26.0000     4.0000     7.0000    26.0000    24.0000    10.0000     7.0000    24.0000     0.0014    -0.0024     0.0023    20.7701    41.5465     2.3753    14.4503    14.4438     0.006
      2     0.9640     0.9639     0.1600      1.992      2.000  14221.000      2.000    41.5367     0.0149    64.9169   -53.6383    -0.7692     1.4795    26.0000     4.0000     7.0000    26.0000    24.0000    10.0000     7.0000    24.0000     0.0014    -0.0024     0.0023    20.7700    41.5465     2.3826    14.4503    14.4438     0.006
      3     0.9670     0.9670     0.1599      2.005      1.000  14221.000      2.000    41.5367     0.0149    64.8287   -53.8223    -0.7692     1.4795    26.0000     4.0000     7.0000    26.0000    24.0000    10.0000     7.0000    24.0000     0.0014    -0.0024     0.0023    20.7700    41.5465     2.3902    14.4503    14.4438     0.006
      4     0.9700     0.9700     0.1599      2.008      2.000  14221.000      2.000    41.5367     0.0149    64.7416   -54.0032    -0.7692     1.4795    26.0000     4.0000     7.0000    26.0000    24.0000    10.0000     7.0000    24.0000     0.0014    -0.0024     0.0023    20.7700    41.5465     2.3976    14.4503    14.4438     0.006
      5     0.9730     0.9730     0.1598      2.009      5.000  14221.000      2.000    41.5367     0.0149    64.6543   -54.1842    -0.7692     1.4795    26.0000     4.0000     7.0000    26.0000    24.0000    10.0000     7.0000    24.0000     0.0014    -0.0024     0.0023    20.7700    41.5465     2.4051    14.4503    14.4438     0.006
      6     0.9760     0.9760     0.1600      2.012      8.000  14221.000      2.000    41.5367     0.0149    64.5670   -54.3630    -0.7692     1.4795    26.0000     4.0000     7.0000    26.0000    24.0000    10.0000     7.0000    24.0000     0.0014    -0.0024     0.0023    20.7700    41.5465     2.4124    14.4503    14.4438     0.006
      7     0.9790     0.9789     0.1604      2.005      7.000  14221.000      2.000    41.5367     0.0149    64.4787   -54.5411    -0.7692     1.4795    26.0000     4.0000     7.0000    26.0000    24.0000    10.0000     7.0000    24.0000     0.0014    -0.0024     0.0023    20.7700    41.5465     2.4197    14.4503    14.4438     0.006
      8     0.9820     0.9819     0.1602      1.983      7.000  14221.000      2.000    41.5367     0.0149    64.3919   -54.7223    -0.7692     1.4795    26.0000     4.0000     7.0000    26.0000    24.0000    10.0000     7.0000    24.0000     0.0014    -0.0024     0.0023    20.7700    41.5465     2.4271    14.4503    14.4438     0.006
      9     0.9850     0.9850     0.1600      2.020      4.000  14221.000      2.000    41.5367     0.0149    64.3043   -54.9065    -0.7692     1.4795    26.0000     4.0000     7.0000    26.0000    24.0000    10.0000     7.0000    24.0000     0.0014    -0.0024     0.0023    20.7700    41.5465     2.4346    14.4503    14.4438     0.006
     10     0.9880     0.9880     0.1599      2.013      9.000  14221.000      2.000    41.5367     0.0149    64.2171   -55.0882    -0.7692     1.4795    26.0000     4.0000     7.0000    26.0000    24.0000    10.0000     7.0000    24.0000     0.0014    -0.0024     0.0023    20.7699    41.5465     2.4421    14.4503    14.4438     0.006
     11     0.9910     0.9910     0.1602      2.033      9.000  14221.000      2.000    41.5367     0.0149    64.1284   -55.2673    -0.7692     1.4795    26.0000     4.0000     7.0000    26.0000    24.0000    10.0000     7.0000    24.0000     0.0014    -0.0024     0.0023    20.7699    41.5465     2.4494    14.4503    14.4438     0.006
     12     0.9941     0.9940     0.1597      2.019     11.000  14221.000      2.000    41.5367     0.0149    64.0410   -55.4541    -0.7692     1.4795    26.0000     4.0000     7.0000    26.0000    24.0000    10.0000     7.0000    24.0000     0.0014    -0.0024     0.0023    20.7699    41.5465     2.4570    14.4503    14.4438     0.006
     13     0.9970     0.9970     0.1598      1.998      6.000  14221.000      2.000    41.5367     0.0149    63.9532   -55.6336    -0.7692     1.4795    26.0000     4.0000     7.0000    26.0000    24.0000    10.0000     7.0000    24.0000     0.0014    -0.0024     0.0023    20.7699    41.5465     2.4643    14.4503    14.4438     0.006
     14     1.0001     1.0000     0.1596      2.018      8.000  14221.000      2.000    41.5367     0.0149    63.8653   -55.8182    -0.7692     1.4795    26.0000     4.0000     7.0000    26.0000    24.0000    10.0000     7.0000    24.0000     0.0014    -0.0024     0.0024    20.7699    41.5465     2.4719    14.4503    14.4438     0.006
     15     1.0030     1.0030     0.1598      2.003      6.000  14221.000      2.000    41.5367     0.0149    63.7774   -55.9974    -0.7692     1.4795    26.0000     4.0000     7.0000    26.0000    24.0000    10.0000     7.0000    24.0000     0.0014    -0.0024     0.0023    20.7699    41.5465     2.4791    14.4503    14.4438     0.006
     16     1.0060     1.0059     0.1601      2.017      6.000  14221.000      2.000    41.5367     0.0149    63.6886   -56.1768    -0.7692     1.4795    26.0000     4.0000     7.0000    26.0000    24.0000    10.0000     7.0000    24.0000     0.0014    -0.0024     0.0023    20.7699    41.5465     2.4864    14.4503    14.4438     0.006
     17     1.0090     1.0089     0.1604      2.010      2.000  14221.000      2.000    41.5367     0.0149    63.5992   -56.3584    -0.7692     1.4795    26.0000     4.0000     7.0000    26.0000    24.0000    10.0000     7.0000    24.0000     0.0014    -0.0024     0.0023    20.7699    41.5465     2.4938    14.4503    14.4438     0.006
     18     1.0120     1.0120     0.1600      1.980      2.000  14221.000      2.000    41.5367     0.0149    63.5118   -56.5430    -0.7692     1.4795    26.0000     4.0000     7.0000    26.0000    24.0000    10.0000     7.0000    24.0000     0.0014    -0.0024     0.0023    20.7699    41.5465     2.5013    14.4503    14.4437     0.006
     19     1.0150     1.0149     0.1603      1.989      3.000  14221.000      2.000    41.5367     0.0149    63.4225   -56.7237    -0.7692     1.4795    26.0000     4.0000     7.0000    26.0000    24.0000    10.0000     7.0000    24.0000     0.0014    -0.0024     0.0023    20.7699    41.5465     2.5087    14.4503    14.4438     0.006
     20     1.0180     1.0180     0.1602      2.005      2.000  14221.000      2.000    41.5367     0.0149    63.3341   -56.9079    -0.7692     1.4795    26.0000     4.0000     7.0000    26.0000    24.0000    10.0000     7.0000    24.0000     0.0014    -0.0024     0.0023    20.7699    41.5465     2.5161    14.4503    14.4438     0.006
     21     1.0210     1.0210     0.1598      1.991      2.000  14221.000      2.000    41.5367     0.0149    63.2458   -57.0940    -0.7692     1.4795    26.0000     4.0000     7.0000    26.0000    24.0000    10.0000     7.0000    24.0000     0.0014    -0.0024     0.0023    20.7699    41.5465     2.5237    14.4503    14.4438     0.006
     22     1.0241     1.0240     0.1597      1.991      1.000  14221.000      2.000    41.5367     0.0149    63.1569   -57.2787    -0.7692     1.4795    26.0000     4.0000     7.0000    26.0000    24.0000    10.0000     7.0000    24.0000     0.0014    -0.0024     0.0023    20.7699    41.5465     2.5311    14.4503    14.4438     0.006
     23     1.0271     1.0270     0.1597      1.979      2.000  14221.000      2.000    41.5367     0.0149    63.0680   -57.4622    -0.7692     1.4795    26.0000     4.0000     7.0000    26.0000    24.0000    10.0000     7.0000    24.0000     0.0014    -0.0024     0.0023    20.7699    41.5465     2.5385    14.4503    14.4438     0.006
     24     1.0300     1.0300     0.1599      2.015      3.000  14221.000      2.000    41.5367     0.0149    62.9787   -57.6440    -0.7692     1.4795    26.0000     4.0000     7.0000    26.0000    24.0000    10.0000     7.0000    24.0000     0.0014    -0.0024     0.0023    20.7698    41.5465     2.5459    14.4503    14.4438     0.006
     25     1.0330     1.0330     0.1600      2.008      2.000  14221.000      2.000    41.5367     0.0149    62.8898   -57.8254    -0.7692     1.4795    26.0000     4.0000     7.0000    26.0000    24.0000    10.0000     7.0000    24.0000     0.0014    -0.0024     0.0023    20.7699    41.5465     2.5532    14.4503    14.4437     0.006
     26     1.0360     1.0360     0.1601      1.980      3.000  14221.000      2.000    41.5367     0.0149    62.8004   -58.0088    -0.7692     1.4795    26.0000     4.0000     7.0000    26.0000    24.0000    10.0000     7.0000    24.0000     0.0014    -0.0024     0.0023    20.7699    41.5465     2.5606    14.4503    14.4438     0.006
     27     1.0390     1.0390     0.1599      1.999      4.000  14221.000      2.000    41.5367     0.0149    62.7116   -58.1945    -0.7692     1.4795    26.0000     4.0000     7.0000    26.0000    24.0000    10.0000     7.0000    24.0000     0.0014    -0.0024     0.0023    20.7698    41.5465     2.5681    14.4503    14.4438     0.006
# Sum of Counts = 118
# Center of Mass = 0.996459+/-0.129740
# Full Width Half-Maximum = 0.037875+/-0.047073
# 4:36:08 AM  5/29/2023   scan completed.
