# scan = 868
# date = 6/1/2023
# time = 10:37:05 AM
# proposal = 9879
# experiment = HB-1A  - Backend upgrade commissioning
# experiment_number = 978
# command = scan s2 -10 -120 0.2 preset mcu 60
# builtin_command = scan s2 -10 -120 0.2 preset mcu 60
# users = Feng Ye, John Carruth, Adam Aczel, Songxue Chi, Jaime Fernandez-Baca, Masaaki Matsuda, Tao Hong, Travis Williams, Wei Tian, Michael Cox
# local_contact = Wei Tian, Adam Aczel
# scan_title = Si powder, 2 mm annulus triple axis can, long s2 scan
# monochromator = PG002
# analyzer = Pg002
# sense = +-+
# collimation = 40-40-40-80
# samplename = Si powdre, Si crystal, FeGa alloy, La2Ni7 crystal, Ba2.8Sr0.2CoSn2O9 crystal
# sampletype = crystal
# samplemosaic = 30.000000
# latticeconstants = 5.419666,5.419666,5.419666,90.000000,90.000000,90.000000
# ubmatrix = 0.112527,0.102287,0.104500,-0.073949,-0.073950,0.152013,0.126152,-0.134588,-0.004105
# mode = 0
# plane_normal = 0.039245,0.000005,0.999230
# ubconf = UB29May2023_80143PM.ini
# preset_type = normal
# preset_channel = mcu
# preset_value = 60.000000
# def_x = s2
# def_y = detector
# col_headers =
#   Pt.         s2       time   detector    monitor        mcu         m2   rad_coll         s1        sgl        sgu   slitb_bt   slitb_lf   slitb_rt   slitb_tp   slita_bt   slita_lf   slita_rt   slita_tp        stl        stu         sz         a1         a2          q          h          k          l         ei         ef          e
      1    -9.9993     60.419   3213.000 444553.000     60.000    41.5367     0.0149    -9.3441     0.0002     0.0005    30.0000    10.0000    10.0000    30.0000    25.0000    10.0000    10.0000    25.0000     0.0019    -0.0024     0.0031    20.7707    41.5355     0.4603     0.2294     0.2074     0.2490    14.4503    14.4511    -0.000
      2   -10.2030     60.350   3082.000 444553.000     60.000    41.5367     0.0149    -9.3441     0.0002     0.0005    30.0000    10.0000    10.0000    30.0000    25.0000    10.0000    10.0000    25.0000     0.0019    -0.0024     0.0031    20.7705    41.5355     0.4696     0.2343     0.2119     0.2535    14.4503    14.4511    -0.000
      3   -10.3975     60.363   3044.000 444553.000     60.000    41.5367     0.0149    -9.3441     0.0002     0.0005    30.0000    10.0000    10.0000    30.0000    25.0000    10.0000    10.0000    25.0000     0.0019    -0.0024     0.0031    20.7704    41.5355     0.4786     0.2391     0.2163     0.2578    14.4503    14.4511    -0.000
      4   -10.6036     60.137   3171.000 444553.000     60.000    41.5367     0.0149    -9.3441     0.0002     0.0005    30.0000    10.0000    10.0000    30.0000    25.0000    10.0000    10.0000    25.0000     0.0019    -0.0024     0.0031    20.7703    41.5355     0.4880     0.2442     0.2209     0.2623    14.4503    14.4511    -0.000
      5   -10.8028     60.383   3000.000 444553.000     60.000    41.5367     0.0149    -9.3441     0.0002     0.0005    30.0000    10.0000    10.0000    30.0000    25.0000    10.0000    10.0000    25.0000     0.0019    -0.0024     0.0031    20.7703    41.5355     0.4972     0.2491     0.2253     0.2666    14.4503    14.4511    -0.000
      6   -10.9969     60.431   2904.000 444553.000     60.000    41.5367     0.0149    -9.3441     0.0002     0.0005    30.0000    10.0000    10.0000    30.0000    25.0000    10.0000    10.0000    25.0000     0.0019    -0.0024     0.0031    20.7703    41.5355     0.5061     0.2539     0.2297     0.2708    14.4503    14.4511    -0.000
      7   -11.1998     60.442   2816.000 444553.000     60.000    41.5367     0.0149    -9.3441     0.0002     0.0005    30.0000    10.0000    10.0000    30.0000    25.0000    10.0000    10.0000    25.0000     0.0019    -0.0024     0.0031    20.7702    41.5355     0.5154     0.2589     0.2343     0.2752    14.4503    14.4511    -0.000
      8   -11.3982     60.555   2763.000 444553.000     60.000    41.5367     0.0149    -9.3441     0.0002     0.0005    30.0000    10.0000    10.0000    30.0000    25.0000    10.0000    10.0000    25.0000     0.0019    -0.0024     0.0031    20.7702    41.5355     0.5245     0.2638     0.2387     0.2794    14.4503    14.4511    -0.000
      9   -11.6026     60.302   2762.000 444553.000     60.000    41.5367     0.0149    -9.3441     0.0002     0.0005    30.0000    10.0000    10.0000    30.0000    25.0000    10.0000    10.0000    25.0000     0.0019    -0.0024     0.0031    20.7701    41.5354     0.5339     0.2689     0.2434     0.2838    14.4503    14.4511    -0.000
     10   -11.8015     60.257   2639.000 444553.000     60.000    41.5367     0.0149    -9.3441     0.0002     0.0005    30.0000    10.0000    10.0000    30.0000    25.0000    10.0000    10.0000    25.0000     0.0019    -0.0024     0.0031    20.7701    41.5355     0.5430     0.2738     0.2479     0.2880    14.4503    14.4511    -0.000
     11   -11.9970     60.430   2739.000 444553.000     60.000    41.5367     0.0149    -9.3441     0.0002     0.0005    30.0000    10.0000    10.0000    30.0000    25.0000    10.0000    10.0000    25.0000     0.0019    -0.0024     0.0031    20.7701    41.5354     0.5519     0.2787     0.2523     0.2921    14.4503    14.4511    -0.000
     12   -12.2027     60.497   2630.000 444553.000     60.000    41.5367     0.0149    -9.3441     0.0002     0.0005    30.0000    10.0000    10.0000    30.0000    25.0000    10.0000    10.0000    25.0000     0.0019    -0.0024     0.0031    20.7701    41.5355     0.5614     0.2838     0.2570     0.2964    14.4503    14.4511    -0.000
     13   -12.3993     60.357   2725.000 444553.000     60.000    41.5367     0.0149    -9.3441     0.0002     0.0005    30.0000    10.0000    10.0000    30.0000    25.0000    10.0000    10.0000    25.0000     0.0019    -0.0024     0.0031    20.7700    41.5355     0.5704     0.2887     0.2615     0.3005    14.4503    14.4511    -0.000
     14   -12.5995     60.319   2689.000 444553.000     60.000    41.5367     0.0149    -9.3441     0.0002     0.0005    30.0000    10.0000    10.0000    30.0000    25.0000    10.0000    10.0000    25.0000     0.0019    -0.0024     0.0031    20.7700    41.5355     0.5796     0.2938     0.2661     0.3046    14.4503    14.4511    -0.000
     15   -12.7971     60.370   2540.000 444553.000     60.000    41.5367     0.0149    -9.3441     0.0002     0.0005    30.0000    10.0000    10.0000    30.0000    25.0000    10.0000    10.0000    25.0000     0.0019    -0.0024     0.0031    20.7700    41.5355     0.5886     0.2987     0.2706     0.3087    14.4503    14.4511    -0.000
     16   -13.0034     60.199   2561.000 444553.000     60.000    41.5367     0.0149    -9.3441     0.0002     0.0005    30.0000    10.0000    10.0000    30.0000    25.0000    10.0000    10.0000    25.0000     0.0020    -0.0024     0.0031    20.7700    41.5354     0.5981     0.3039     0.2753     0.3129    14.4503    14.4511    -0.000
     17   -13.2032     60.335   2609.000 444553.000     60.000    41.5367     0.0149    -9.3441     0.0002     0.0005    30.0000    10.0000    10.0000    30.0000    25.0000    10.0000    10.0000    25.0000     0.0019    -0.0024     0.0031    20.7700    41.5354     0.6072     0.3090     0.2799     0.3170    14.4503    14.4511    -0.000
     18   -13.3983     60.594   2538.000 444553.000     60.000    41.5367     0.0149    -9.3441     0.0002     0.0005    30.0000    10.0000    10.0000    30.0000    25.0000    10.0000    10.0000    25.0000     0.0019    -0.0024     0.0031    20.7700    41.5354     0.6161     0.3139     0.2844     0.3209    14.4503    14.4511    -0.000
     19   -13.6014     60.354   2515.000 444553.000     60.000    41.5367     0.0149    -9.3441     0.0002     0.0005    30.0000    10.0000    10.0000    30.0000    25.0000    10.0000    10.0000    25.0000     0.0020    -0.0024     0.0031    20.7699    41.5354     0.6254     0.3191     0.2891     0.3250    14.4503    14.4511    -0.000
     20   -13.8017     60.411   2449.000 444553.000     60.000    41.5367     0.0149    -9.3441     0.0002     0.0005    30.0000    10.0000    10.0000    30.0000    25.0000    10.0000    10.0000    25.0000     0.0020    -0.0024     0.0031    20.7699    41.5354     0.6346     0.3241     0.2938     0.3290    14.4503    14.4511    -0.000
     21   -13.9977     60.505   2312.000 444553.000     60.000    41.5367     0.0149    -9.3441     0.0002     0.0005    30.0000    10.0000    10.0000    30.0000    25.0000    10.0000    10.0000    25.0000     0.0020    -0.0024     0.0031    20.7699    41.5355     0.6436     0.3291     0.2983     0.3329    14.4503    14.4511    -0.000
     22   -14.1989     60.355   2365.000 444553.000     60.000    41.5367     0.0149    -9.3441     0.0002     0.0005    30.0000    10.0000    10.0000    30.0000    25.0000    10.0000    10.0000    25.0000     0.0019    -0.0024     0.0031    20.7699    41.5354     0.6528     0.3343     0.3030     0.3369    14.4503    14.4511    -0.000
     23   -14.3996     60.221   2269.000 444553.000     60.000    41.5367     0.0149    -9.3441     0.0002     0.0005    30.0000    10.0000    10.0000    30.0000    25.0000    10.0000    10.0000    25.0000     0.0019    -0.0024     0.0031    20.7699    41.5355     0.6619     0.3394     0.3077     0.3408    14.4503    14.4511    -0.000
     24   -14.6005     60.464   2337.000 444553.000     60.000    41.5367     0.0149    -9.3441     0.0002     0.0005    30.0000    10.0000    10.0000    30.0000    25.0000    10.0000    10.0000    25.0000     0.0019    -0.0024     0.0031    20.7699    41.5355     0.6711     0.3445     0.3124     0.3447    14.4503    14.4511    -0.000
     25   -14.7977     60.574   2316.000 444553.000     60.000    41.5367     0.0149    -9.3441     0.0002     0.0005    30.0000    10.0000    10.0000    30.0000    25.0000    10.0000    10.0000    25.0000     0.0020    -0.0024     0.0031    20.7699    41.5354     0.6801     0.3496     0.3170     0.3485    14.4503    14.4511    -0.000
     26   -15.0032     60.138   2342.000 444553.000     60.000    41.5367     0.0149    -9.3441     0.0002     0.0005    30.0000    10.0000    10.0000    30.0000    25.0000    10.0000    10.0000    25.0000     0.0020    -0.0024     0.0031    20.7699    41.5354     0.6895     0.3548     0.3219     0.3525    14.4503    14.4511    -0.000
     27   -15.1961     60.305   2267.000 444553.000     60.000    41.5367     0.0149    -9.3441     0.0002     0.0005    30.0000    10.0000    10.0000    30.0000    25.0000    10.0000    10.0000    25.0000     0.0020    -0.0024     0.0031    20.7699    41.5354     0.6983     0.3598     0.3264     0.3562    14.4503    14.4511    -0.000
     28   -15.3993     60.495   2150.000 444553.000     60.000    41.5367     0.0149    -9.3441     0.0002     0.0005    30.0000    10.0000    10.0000    30.0000    25.0000    10.0000    10.0000    25.0000     0.0019    -0.0024     0.0031    20.7698    41.5354     0.7076     0.3650     0.3312     0.3600    14.4503    14.4511    -0.000
     29   -15.5976     60.514   2266.000 444553.000     60.000    41.5367     0.0149    -9.3441     0.0002     0.0005    30.0000    10.0000    10.0000    30.0000    25.0000    10.0000    10.0000    25.0000     0.0020    -0.0024     0.0031    20.7698    41.5355     0.7167     0.3702     0.3359     0.3638    14.4503    14.4511    -0.000
     30   -15.7998     60.334   2211.000 444553.000     60.000    41.5367     0.0149    -9.3441     0.0002     0.0005    30.0000    10.0000    10.0000    30.0000    25.0000    10.0000    10.0000    25.0000     0.0020    -0.0024     0.0031    20.7698    41.5354     0.7259     0.3754     0.3407     0.3676    14.4503    14.4511    -0.000
     31   -15.9978     60.451   2301.000 444553.000     60.000    41.5367     0.0149    -9.3441     0.0002     0.0005    30.0000    10.0000    10.0000    30.0000    25.0000    10.0000    10.0000    25.0000     0.0020    -0.0023     0.0031    20.7698    41.5355     0.7350     0.3805     0.3453     0.3713    14.4503    14.4511    -0.000
     32   -16.1972     60.482   2188.000 444553.000     60.000    41.5367     0.0149    -9.3441     0.0002     0.0005    30.0000    10.0000    10.0000    30.0000    25.0000    10.0000    10.0000    25.0000     0.0020    -0.0024     0.0031    20.7698    41.5355     0.7441     0.3857     0.3501     0.3749    14.4503    14.4511    -0.000
     33   -16.3968     60.024   2121.000 444553.000     60.000    41.5367     0.0149    -9.3441     0.0002     0.0005    30.0000    10.0000    10.0000    30.0000    25.0000    10.0000    10.0000    25.0000     0.0020    -0.0024     0.0031    20.7698    41.5355     0.7532     0.3909     0.3548     0.3786    14.4503    14.4511    -0.000
     34   -16.6006     60.455   2196.000 444553.000     60.000    41.5367     0.0149    -9.3441     0.0002     0.0005    30.0000    10.0000    10.0000    30.0000    25.0000    10.0000    10.0000    25.0000     0.0020    -0.0024     0.0031    20.7698    41.5355     0.7625     0.3962     0.3597     0.3823    14.4503    14.4511    -0.000
     35   -16.7960     60.476   2101.000 444553.000     60.000    41.5367     0.0149    -9.3441     0.0002     0.0005    30.0000    10.0000    10.0000    30.0000    25.0000    10.0000    10.0000    25.0000     0.0020    -0.0023     0.0031    20.7698    41.5355     0.7714     0.4013     0.3644     0.3859    14.4503    14.4511    -0.000
     36   -17.0013     60.364   2097.000 444553.000     60.000    41.5367     0.0149    -9.3441     0.0002     0.0005    30.0000    10.0000    10.0000    30.0000    25.0000    10.0000    10.0000    25.0000     0.0020    -0.0024     0.0031    20.7698    41.5355     0.7807     0.4067     0.3693     0.3896    14.4503    14.4511    -0.000
     37   -17.2022     60.383   2031.000 444553.000     60.000    41.5367     0.0149    -9.3441     0.0002     0.0005    30.0000    10.0000    10.0000    30.0000    25.0000    10.0000    10.0000    25.0000     0.0020    -0.0023     0.0031    20.7698    41.5355     0.7899     0.4119     0.3741     0.3932    14.4503    14.4511    -0.000
     38   -17.3995     60.420   2045.000 444553.000     60.000    41.5367     0.0149    -9.3441     0.0002     0.0005    30.0000    10.0000    10.0000    30.0000    25.0000    10.0000    10.0000    25.0000     0.0020    -0.0024     0.0031    20.7697    41.5355     0.7989     0.4171     0.3788     0.3967    14.4503    14.4511    -0.000
     39   -17.5973     60.399   1999.000 444553.000     60.000    41.5367     0.0149    -9.3441     0.0002     0.0005    30.0000    10.0000    10.0000    30.0000    25.0000    10.0000    10.0000    25.0000     0.0020    -0.0023     0.0031    20.7698    41.5354     0.8079     0.4223     0.3836     0.4002    14.4503    14.4511    -0.000
     40   -17.8016     60.248   1995.000 444553.000     60.000    41.5367     0.0149    -9.3441     0.0002     0.0005    30.0000    10.0000    10.0000    30.0000    25.0000    10.0000    10.0000    25.0000     0.0020    -0.0023     0.0031    20.7697    41.5355     0.8172     0.4277     0.3885     0.4037    14.4503    14.4511    -0.000
     41   -18.0035     60.182   2085.000 444553.000     60.000    41.5367     0.0149    -9.3441     0.0002     0.0005    30.0000    10.0000    10.0000    30.0000    25.0000    10.0000    10.0000    25.0000     0.0020    -0.0024     0.0031    20.7697    41.5355     0.8264     0.4330     0.3934     0.4073    14.4503    14.4511    -0.000
     42   -18.2028     60.532   1926.000 444553.000     60.000    41.5367     0.0149    -9.3441     0.0002     0.0005    30.0000    10.0000    10.0000    30.0000    25.0000    10.0000    10.0000    25.0000     0.0020    -0.0023     0.0031    20.7697    41.5355     0.8355     0.4382     0.3982     0.4107    14.4503    14.4511    -0.000
     43   -18.4013     60.552   1946.000 444553.000     60.000    41.5367     0.0149    -9.3441     0.0002     0.0005    30.0000    10.0000    10.0000    30.0000    25.0000    10.0000    10.0000    25.0000     0.0020    -0.0023     0.0031    20.7697    41.5355     0.8445     0.4435     0.4031     0.4141    14.4503    14.4511    -0.000
     44   -18.5971     60.500   1933.000 444553.000     60.000    41.5367     0.0149    -9.3441     0.0002     0.0005    30.0000    10.0000    10.0000    30.0000    25.0000    10.0000    10.0000    25.0000     0.0020    -0.0024     0.0031    20.7697    41.5355     0.8534     0.4487     0.4078     0.4174    14.4503    14.4511    -0.000
     45   -18.7983     60.346   1952.000 444553.000     60.000    41.5367     0.0149    -9.3441     0.0002     0.0005    30.0000    10.0000    10.0000    30.0000    25.0000    10.0000    10.0000    25.0000     0.0020    -0.0024     0.0031    20.7698    41.5355     0.8625     0.4540     0.4127     0.4208    14.4503    14.4511    -0.000
     46   -19.0004     60.373   1952.000 444553.000     60.000    41.5367     0.0149    -9.3441     0.0002     0.0005    30.0000    10.0000    10.0000    30.0000    25.0000    10.0000    10.0000    25.0000     0.0020    -0.0024     0.0031    20.7697    41.5355     0.8717     0.4594     0.4176     0.4242    14.4503    14.4511    -0.000
     47   -19.1988     60.440   1947.000 444553.000     60.000    41.5367     0.0149    -9.3441     0.0002     0.0005    30.0000    10.0000    10.0000    30.0000    25.0000    10.0000    10.0000    25.0000     0.0020    -0.0023     0.0030    20.7697    41.5355     0.8808     0.4646     0.4225     0.4275    14.4503    14.4511    -0.000
     48   -19.3998     60.332   1966.000 444553.000     60.000    41.5367     0.0149    -9.3441     0.0002     0.0005    30.0000    10.0000    10.0000    30.0000    25.0000    10.0000    10.0000    25.0000     0.0020    -0.0023     0.0031    20.7697    41.5355     0.8899     0.4700     0.4274     0.4308    14.4503    14.4511    -0.000
     49   -19.6015     60.378   1918.000 444553.000     60.000    41.5367     0.0149    -9.3441     0.0002     0.0005    30.0000    10.0000    10.0000    30.0000    25.0000    10.0000    10.0000    25.0000     0.0020    -0.0023     0.0031    20.7697    41.5355     0.8990     0.4754     0.4323     0.4341    14.4503    14.4511    -0.000
     50   -19.8029     60.285   1925.000 444553.000     60.000    41.5367     0.0149    -9.3441     0.0002     0.0005    30.0000    10.0000    10.0000    30.0000    25.0000    10.0000    10.0000    25.0000     0.0020    -0.0023     0.0030    20.7697    41.5355     0.9082     0.4808     0.4373     0.4374    14.4503    14.4511    -0.000
     51   -19.9990     60.168   1926.000 444553.000     60.000    41.5367     0.0149    -9.3441     0.0002     0.0005    30.0000    10.0000    10.0000    30.0000    25.0000    10.0000    10.0000    25.0000     0.0020    -0.0024     0.0031    20.7697    41.5355     0.9171     0.4860     0.4421     0.4406    14.4503    14.4511    -0.000
     52   -20.1984     60.277   1819.000 444553.000     60.000    41.5367     0.0149    -9.3441     0.0002     0.0005    30.0000    10.0000    10.0000    30.0000    25.0000    10.0000    10.0000    25.0000     0.0020    -0.0023     0.0031    20.7697    41.5355     0.9261     0.4913     0.4470     0.4438    14.4503    14.4511    -0.000
     53   -20.3969     60.328   1901.000 444553.000     60.000    41.5367     0.0149    -9.3441     0.0002     0.0005    30.0000    10.0000    10.0000    30.0000    25.0000    10.0000    10.0000    25.0000     0.0020    -0.0023     0.0031    20.7697    41.5355     0.9351     0.4967     0.4519     0.4469    14.4503    14.4511    -0.000
     54   -20.5982     60.182   1895.000 444553.000     60.000    41.5367     0.0149    -9.3441     0.0002     0.0005    30.0000    10.0000    10.0000    30.0000    25.0000    10.0000    10.0000    25.0000     0.0020    -0.0024     0.0031    20.7697    41.5355     0.9443     0.5021     0.4569     0.4501    14.4503    14.4511    -0.000
