# scan = 608
# date = 5/28/2023
# time = 4:39:29 AM
# proposal = 9879
# experiment = HB-1A  - Backend upgrade commissioning
# experiment_number = 978
# command = th2th 3 -3 0.15
# builtin_command = scan s2 @(s2)+3 @(s2)+-3 0.150000 s1 @(s1)+(3/2) @(s1)+(-3/2) 0.075000
# users = Feng Ye, John Carruth, Adam Aczel, Songxue Chi, Jaime Fernandez-Baca, Masaaki Matsuda, Tao Hong, Travis Williams, Wei Tian, Michael Cox
# local_contact = Wei Tian, Adam Aczel
# scan_title = La2Ni7, ( 1.000105 1.000065 9.997286 ), th2th, 40'-20'-S-20'-20' colli
# monochromator = PG002
# analyzer = Pg002
# sense = +-+
# collimation = 40-40-40-80
# samplename = Si powdre, Si crystal, FeGa alloy, La2Ni7 crystal, Ba2.8Sr0.2CoSn2O9 crystal
# sampletype = crystal
# samplemosaic = 30.000000
# latticeconstants = 5.084792,5.084792,24.669626,90.000000,90.000000,120.000000
# ubmatrix = -0.007838,-0.010887,0.040486,-0.193443,-0.199303,-0.001943,0.118692,-0.108301,-0.000494
# mode = 0
# plane_normal = 0.013424,0.025807,0.999577
# ubconf = UB27May2023_80143PM.ini
# preset_type = normal 
# preset_channel = mcu
# preset_value = 10.000000
# def_x = s2
# def_y = detector
# col_headers = 
#   Pt.         s2         s1       time   detector    monitor        mcu         m2   rad_coll        sgl        sgu   slitb_bt   slitb_lf   slitb_rt   slitb_tp   slita_bt   slita_lf   slita_rt   slita_tp        stl        stu         sz         a1         a2          q          h          k          l         ei         ef          e
      1   -81.4342     6.1514     10.195      4.000  71101.000     10.000    41.5367     0.0149    -0.7692     1.4795    26.0000     4.0000     7.0000    26.0000    24.0000    10.0000     7.0000    24.0000     0.0014    -0.0024     0.0024    20.7699    41.5465     3.4449     0.9709     0.9709     9.7054    14.4503    14.4438     0.006
      2   -81.5866     6.0773     10.147      6.000  71101.000     10.000    41.5367     0.0149    -0.7692     1.4795    26.0000     4.0000     7.0000    26.0000    24.0000    10.0000     7.0000    24.0000     0.0014    -0.0024     0.0024    20.7699    41.5465     3.4502     0.9724     0.9724     9.7200    14.4503    14.4437     0.006
      3   -81.7375     6.0016     10.146      9.000  71101.000     10.000    41.5367     0.0149    -0.7692     1.4795    26.0000     4.0000     7.0000    26.0000    24.0000    10.0000     7.0000    24.0000     0.0014    -0.0024     0.0024    20.7699    41.5465     3.4555     0.9739     0.9739     9.7349    14.4503    14.4438     0.006
      4   -81.8889     5.9272     10.238      7.000  71101.000     10.000    41.5367     0.0149    -0.7692     1.4795    26.0000     4.0000     7.0000    26.0000    24.0000    10.0000     7.0000    24.0000     0.0014    -0.0024     0.0024    20.7699    41.5465     3.4607     0.9754     0.9754     9.7495    14.4503    14.4438     0.006
      5   -82.0382     5.8516     10.248      8.000  71101.000     10.000    41.5367     0.0149    -0.7692     1.4795    26.0000     4.0000     7.0000    26.0000    24.0000    10.0000     7.0000    24.0000     0.0014    -0.0024     0.0024    20.7699    41.5465     3.4659     0.9769     0.9768     9.7643    14.4503    14.4437     0.006
      6   -82.1861     5.7771     10.161      9.000  71101.000     10.000    41.5367     0.0149    -0.7692     1.4795    26.0000     4.0000     7.0000    26.0000    24.0000    10.0000     7.0000    24.0000     0.0014    -0.0024     0.0024    20.7699    41.5465     3.4711     0.9783     0.9783     9.7789    14.4503    14.4438     0.006
      7   -82.3340     5.7016     10.275      6.000  71101.000     10.000    41.5367     0.0149    -0.7692     1.4795    26.0000     4.0000     7.0000    26.0000    24.0000    10.0000     7.0000    24.0000     0.0014    -0.0024     0.0024    20.7699    41.5465     3.4762     0.9797     0.9797     9.7936    14.4503    14.4437     0.006
      8   -82.4833     5.6266     10.160      8.000  71101.000     10.000    41.5367     0.0149    -0.7692     1.4795    26.0000     4.0000     7.0000    26.0000    24.0000    10.0000     7.0000    24.0000     0.0014    -0.0024     0.0024    20.7699    41.5465     3.4814     0.9812     0.9811     9.8083    14.4503    14.4437     0.006
      9   -82.6339     5.5511     10.214      9.000  71101.000     10.000    41.5367     0.0149    -0.7692     1.4795    26.0000     4.0000     7.0000    26.0000    24.0000    10.0000     7.0000    24.0000     0.0014    -0.0024     0.0024    20.7699    41.5465     3.4866     0.9826     0.9826     9.8230    14.4503    14.4437     0.006
     10   -82.7828     5.4767     10.184     10.000  71101.000     10.000    41.5367     0.0149    -0.7692     1.4795    26.0000     4.0000     7.0000    26.0000    24.0000    10.0000     7.0000    24.0000     0.0014    -0.0024     0.0024    20.7699    41.5465     3.4918     0.9841     0.9840     9.8375    14.4503    14.4438     0.006
     11   -82.9366     5.4013     10.230     10.000  71101.000     10.000    41.5367     0.0149    -0.7692     1.4795    26.0000     4.0000     7.0000    26.0000    24.0000    10.0000     7.0000    24.0000     0.0014    -0.0024     0.0024    20.7698    41.5465     3.4971     0.9856     0.9856     9.8522    14.4503    14.4437     0.006
     12   -83.0845     5.3270     10.251     27.000  71101.000     10.000    41.5367     0.0149    -0.7692     1.4795    26.0000     4.0000     7.0000    26.0000    24.0000    10.0000     7.0000    24.0000     0.0014    -0.0024     0.0024    20.7698    41.5465     3.5022     0.9870     0.9870     9.8667    14.4503    14.4437     0.006
     13   -83.2366     5.2512     10.199    109.000  71101.000     10.000    41.5367     0.0149    -0.7692     1.4795    26.0000     4.0000     7.0000    26.0000    24.0000    10.0000     7.0000    24.0000     0.0014    -0.0024     0.0024    20.7699    41.5465     3.5074     0.9885     0.9885     9.8814    14.4503    14.4437     0.006
     14   -83.3864     5.1773     10.222    342.000  71101.000     10.000    41.5367     0.0149    -0.7692     1.4795    26.0000     4.0000     7.0000    26.0000    24.0000    10.0000     7.0000    24.0000     0.0014    -0.0024     0.0024    20.7699    41.5465     3.5126     0.9900     0.9900     9.8958    14.4503    14.4437     0.006
     15   -83.5380     5.1013     10.186    775.000  71101.000     10.000    41.5367     0.0149    -0.7692     1.4795    26.0000     4.0000     7.0000    26.0000    24.0000    10.0000     7.0000    24.0000     0.0014    -0.0024     0.0024    20.7699    41.5465     3.5178     0.9915     0.9914     9.9105    14.4503    14.4437     0.006
     16   -83.6880     5.0270     10.094   1347.000  71101.000     10.000    41.5367     0.0149    -0.7692     1.4795    26.0000     4.0000     7.0000    26.0000    24.0000    10.0000     7.0000    24.0000     0.0014    -0.0024     0.0024    20.7698    41.5465     3.5229     0.9929     0.9929     9.9249    14.4503    14.4437     0.006
     17   -83.8355     4.9516     10.082   1772.000  71101.000     10.000    41.5367     0.0149    -0.7692     1.4795    26.0000     4.0000     7.0000    26.0000    24.0000    10.0000     7.0000    24.0000     0.0014    -0.0024     0.0024    20.7699    41.5465     3.5280     0.9943     0.9943     9.9394    14.4503    14.4437     0.006
     18   -83.9859     4.8773     10.248   2168.000  71101.000     10.000    41.5367     0.0149    -0.7692     1.4795    26.0000     4.0000     7.0000    26.0000    24.0000    10.0000     7.0000    24.0000     0.0014    -0.0024     0.0024    20.7698    41.5465     3.5332     0.9958     0.9958     9.9538    14.4503    14.4437     0.006
     19   -84.1342     4.8017     10.214   2531.000  71101.000     10.000    41.5367     0.0149    -0.7692     1.4795    26.0000     4.0000     7.0000    26.0000    24.0000    10.0000     7.0000    24.0000     0.0014    -0.0024     0.0024    20.7698    41.5465     3.5382     0.9972     0.9972     9.9684    14.4503    14.4437     0.006
     20   -84.2854     4.7270     10.227   2704.000  71101.000     10.000    41.5367     0.0149    -0.7692     1.4795    26.0000     4.0000     7.0000    26.0000    24.0000    10.0000     7.0000    24.0000     0.0014    -0.0024     0.0024    20.7699    41.5465     3.5434     0.9987     0.9986     9.9828    14.4503    14.4437     0.006
     21   -84.4348     4.6512     10.129   2422.000  71101.000     10.000    41.5367     0.0149    -0.7692     1.4795    26.0000     4.0000     7.0000    26.0000    24.0000    10.0000     7.0000    24.0000     0.0014    -0.0024     0.0024    20.7698    41.5465     3.5485     1.0001     1.0000     9.9973    14.4503    14.4437     0.006
     22   -84.5846     4.5768     10.120   2078.000  71101.000     10.000    41.5367     0.0149    -0.7692     1.4795    26.0000     4.0000     7.0000    26.0000    24.0000    10.0000     7.0000    24.0000     0.0014    -0.0024     0.0024    20.7698    41.5465     3.5536     1.0015     1.0015    10.0117    14.4503    14.4437     0.006
     23   -84.7346     4.5014     10.244   1666.000  71101.000     10.000    41.5367     0.0149    -0.7692     1.4795    26.0000     4.0000     7.0000    26.0000    24.0000    10.0000     7.0000    24.0000     0.0014    -0.0024     0.0024    20.7699    41.5465     3.5587     1.0030     1.0029    10.0261    14.4503    14.4437     0.006
     24   -84.8849     4.4265     10.220   1323.000  71101.000     10.000    41.5367     0.0149    -0.7692     1.4795    26.0000     4.0000     7.0000    26.0000    24.0000    10.0000     7.0000    24.0000     0.0014    -0.0024     0.0024    20.7698    41.5465     3.5638     1.0044     1.0044    10.0405    14.4503    14.4437     0.006
     25   -85.0366     4.3511     10.234   1026.000  71101.000     10.000    41.5367     0.0149    -0.7692     1.4795    26.0000     4.0000     7.0000    26.0000    24.0000    10.0000     7.0000    24.0000     0.0014    -0.0024     0.0024    20.7698    41.5465     3.5690     1.0059     1.0058    10.0550    14.4503    14.4437     0.006
     26   -85.1873     4.2771     10.193    748.000  71101.000     10.000    41.5367     0.0149    -0.7692     1.4795    26.0000     4.0000     7.0000    26.0000    24.0000    10.0000     7.0000    24.0000     0.0014    -0.0024     0.0024    20.7698    41.5465     3.5741     1.0073     1.0073    10.0691    14.4503    14.4437     0.006
     27   -85.3370     4.2015     10.173    499.000  71101.000     10.000    41.5367     0.0149    -0.7692     1.4795    26.0000     4.0000     7.0000    26.0000    24.0000    10.0000     7.0000    24.0000     0.0014    -0.0024     0.0024    20.7699    41.5465     3.5792     1.0088     1.0087    10.0836    14.4503    14.4437     0.006
     28   -85.4847     4.1269     10.206    340.000  71101.000     10.000    41.5367     0.0149    -0.7692     1.4795    26.0000     4.0000     7.0000    26.0000    24.0000    10.0000     7.0000    24.0000     0.0014    -0.0024     0.0024    20.7698    41.5465     3.5842     1.0102     1.0101    10.0978    14.4503    14.4437     0.006
     29   -85.6348     4.0513     10.202    146.000  71101.000     10.000    41.5367     0.0149    -0.7692     1.4795    26.0000     4.0000     7.0000    26.0000    24.0000    10.0000     7.0000    24.0000     0.0014    -0.0024     0.0024    20.7699    41.5465     3.5893     1.0116     1.0115    10.1122    14.4503    14.4437     0.006
     30   -85.7828     3.9771     10.244     60.000  71101.000     10.000    41.5367     0.0149    -0.7692     1.4795    26.0000     4.0000     7.0000    26.0000    24.0000    10.0000     7.0000    24.0000     0.0014    -0.0024     0.0024    20.7698    41.5465     3.5943     1.0130     1.0129    10.1263    14.4503    14.4437     0.006
     31   -85.9342     3.9019     10.245     32.000  71101.000     10.000    41.5367     0.0149    -0.7692     1.4795    26.0000     4.0000     7.0000    26.0000    24.0000    10.0000     7.0000    24.0000     0.0014    -0.0024     0.0024    20.7698    41.5465     3.5994     1.0144     1.0144    10.1406    14.4503    14.4437     0.006
     32   -86.0839     3.8269     10.200     26.000  71101.000     10.000    41.5367     0.0149    -0.7692     1.4795    26.0000     4.0000     7.0000    26.0000    24.0000    10.0000     7.0000    24.0000     0.0014    -0.0024     0.0024    20.7698    41.5465     3.6044     1.0158     1.0158    10.1549    14.4503    14.4437     0.006
     33   -86.2350     3.7516     10.179     10.000  71101.000     10.000    41.5367     0.0149    -0.7692     1.4795    26.0000     4.0000     7.0000    26.0000    24.0000    10.0000     7.0000    24.0000     0.0014    -0.0024     0.0024    20.7698    41.5465     3.6095     1.0173     1.0172    10.1692    14.4503    14.4437     0.006
     34   -86.3840     3.6768     10.181     10.000  71101.000     10.000    41.5367     0.0149    -0.7692     1.4795    26.0000     4.0000     7.0000    26.0000    24.0000    10.0000     7.0000    24.0000     0.0014    -0.0024     0.0024    20.7698    41.5465     3.6145     1.0187     1.0186    10.1833    14.4503    14.4437     0.006
     35   -86.5349     3.6014     10.243      8.000  71101.000     10.000    41.5367     0.0149    -0.7692     1.4795    26.0000     4.0000     7.0000    26.0000    24.0000    10.0000     7.0000    24.0000     0.0014    -0.0024     0.0024    20.7698    41.5465     3.6196     1.0201     1.0201    10.1976    14.4503    14.4437     0.006
     36   -86.6884     3.5266     10.196      4.000  71101.000     10.000    41.5367     0.0149    -0.7692     1.4795    26.0000     4.0000     7.0000    26.0000    24.0000    10.0000     7.0000    24.0000     0.0014    -0.0024     0.0024    20.7698    41.5465     3.6247     1.0216     1.0216    10.2118    14.4503    14.4437     0.006
     37   -86.8381     3.4512     10.257     10.000  71101.000     10.000    41.5367     0.0149    -0.7692     1.4795    26.0000     4.0000     7.0000    26.0000    24.0000    10.0000     7.0000    24.0000     0.0014    -0.0024     0.0024    20.7698    41.5465     3.6297     1.0230     1.0230    10.2260    14.4503    14.4437     0.006
     38   -86.9851     3.3766     10.226      8.000  71101.000     10.000    41.5367     0.0149    -0.7692     1.4795    26.0000     4.0000     7.0000    26.0000    24.0000    10.0000     7.0000    24.0000     0.0014    -0.0024     0.0024    20.7698    41.5465     3.6347     1.0244     1.0243    10.2400    14.4503    14.4437     0.006
     39   -87.1325     3.3015     10.173      8.000  71101.000     10.000    41.5367     0.0149    -0.7692     1.4795    26.0000     4.0000     7.0000    26.0000    24.0000    10.0000     7.0000    24.0000     0.0014    -0.0024     0.0024    20.7698    41.5465     3.6396     1.0257     1.0257    10.2542    14.4503    14.4437     0.006
     40   -87.2861     3.2268     10.242     10.000  71101.000     10.000    41.5367     0.0149    -0.7692     1.4795    26.0000     4.0000     7.0000    26.0000    24.0000    10.0000     7.0000    24.0000     0.0014    -0.0024     0.0024    20.7698    41.5465     3.6447     1.0272     1.0272    10.2682    14.4503    14.4437     0.006
     41   -87.4329     3.1514     10.196      8.000  71101.000     10.000    41.5367     0.0149    -0.7692     1.4795    26.0000     4.0000     7.0000    26.0000    24.0000    10.0000     7.0000    24.0000     0.0014    -0.0024     0.0024    20.7698    41.5465     3.6496     1.0286     1.0285    10.2824    14.4503    14.4437     0.006
# Sum of Counts = 22303
# Center of Mass = -84.358999+/-0.798857
# Full Width Half-Maximum = 1.084913+/-0.314345
# 4:51:09 AM  5/28/2023   scan completed.
