# scan = 685
# date = 5/29/2023
# time = 4:22:51 AM
# proposal = 9879
# experiment = HB-1A  - Backend upgrade commissioning
# experiment_number = 978
# command = scan h 0.961 1.039 0.003 k 0.961 1.039 0.003 l 0.15
# builtin_command = scan h 0.961 1.039 0.003 k 0.961 1.039 0.003 l 0.15
# users = Feng Ye, John Carruth, Adam Aczel, Songxue Chi, Jaime Fernandez-Baca, Masaaki Matsuda, Tao Hong, Travis Williams, Wei Tian, Michael Cox
# local_contact = Wei Tian, Adam Aczel
# scan_title = La2Ni7, ( 0.999916 0.99988 -0.002084 ), 40'-20'-S-20'-20' colli
# monochromator = PG002
# analyzer = Pg002
# sense = +-+
# collimation = 40-40-40-80
# samplename = Si powdre, Si crystal, FeGa alloy, La2Ni7 crystal, Ba2.8Sr0.2CoSn2O9 crystal
# sampletype = crystal
# samplemosaic = 30.000000
# latticeconstants = 5.084792,5.084792,24.669626,90.000000,90.000000,120.000000
# ubmatrix = -0.007838,-0.010887,0.040486,-0.193443,-0.199303,-0.001943,0.118692,-0.108301,-0.000494
# mode = 0
# plane_normal = 0.013424,0.025807,0.999577
# ubconf = UB27May2023_80143PM.ini
# preset_type = normal 
# preset_channel = mcu
# preset_value = 2.000000
# def_x = h
# def_y = detector
# col_headers = 
#   Pt.          h          k          l       time   detector    monitor        mcu         m2   rad_coll         s1         s2        sgl        sgu   slitb_bt   slitb_lf   slitb_rt   slitb_tp   slita_bt   slita_lf   slita_rt   slita_tp        stl        stu         sz         a1         a2          q         ei         ef          e
      1     0.9610     0.9610     0.1500      1.995      4.000  14221.000      2.000    41.5367     0.0149    65.0646   -53.4601    -0.7692     1.4795    26.0000     4.0000     7.0000    26.0000    24.0000    10.0000     7.0000    24.0000     0.0014    -0.0024     0.0023    20.7701    41.5465     2.3753    14.4503    14.4438     0.006
      2     0.9640     0.9639     0.1502      1.994      5.000  14221.000      2.000    41.5367     0.0149    64.9778   -53.6371    -0.7692     1.4795    26.0000     4.0000     7.0000    26.0000    24.0000    10.0000     7.0000    24.0000     0.0014    -0.0024     0.0023    20.7700    41.5465     2.3826    14.4503    14.4438     0.006
      3     0.9670     0.9670     0.1499      2.010      3.000  14221.000      2.000    41.5367     0.0149    64.8905   -53.8215    -0.7692     1.4795    26.0000     4.0000     7.0000    26.0000    24.0000    10.0000     7.0000    24.0000     0.0014    -0.0024     0.0023    20.7700    41.5465     2.3902    14.4503    14.4438     0.006
      4     0.9700     0.9700     0.1498      2.005      3.000  14221.000      2.000    41.5367     0.0149    64.8032   -54.0023    -0.7692     1.4795    26.0000     4.0000     7.0000    26.0000    24.0000    10.0000     7.0000    24.0000     0.0014    -0.0024     0.0023    20.7700    41.5465     2.3976    14.4503    14.4438     0.006
      5     0.9730     0.9730     0.1498      2.029      1.000  14221.000      2.000    41.5367     0.0149    64.7158   -54.1833    -0.7692     1.4795    26.0000     4.0000     7.0000    26.0000    24.0000    10.0000     7.0000    24.0000     0.0014    -0.0024     0.0023    20.7700    41.5465     2.4050    14.4503    14.4438     0.006
      6     0.9760     0.9760     0.1500      2.008      6.000  14221.000      2.000    41.5367     0.0149    64.6281   -54.3620    -0.7692     1.4795    26.0000     4.0000     7.0000    26.0000    24.0000    10.0000     7.0000    24.0000     0.0014    -0.0024     0.0023    20.7700    41.5465     2.4123    14.4503    14.4438     0.006
      7     0.9790     0.9789     0.1505      2.012      7.000  14221.000      2.000    41.5367     0.0149    64.5392   -54.5390    -0.7692     1.4795    26.0000     4.0000     7.0000    26.0000    24.0000    10.0000     7.0000    24.0000     0.0014    -0.0024     0.0023    20.7700    41.5465     2.4196    14.4503    14.4438     0.006
      8     0.9820     0.9820     0.1501      2.008      4.000  14221.000      2.000    41.5367     0.0149    64.4530   -54.7223    -0.7692     1.4795    26.0000     4.0000     7.0000    26.0000    24.0000    10.0000     7.0000    24.0000     0.0014    -0.0024     0.0023    20.7700    41.5465     2.4271    14.4503    14.4438     0.006
      9     0.9850     0.9849     0.1502      1.992      3.000  14221.000      2.000    41.5367     0.0149    64.3643   -54.9032    -0.7692     1.4795    26.0000     4.0000     7.0000    26.0000    24.0000    10.0000     7.0000    24.0000     0.0014    -0.0024     0.0023    20.7700    41.5465     2.4345    14.4503    14.4438     0.006
     10     0.9880     0.9880     0.1498      2.024      6.000  14221.000      2.000    41.5367     0.0149    64.2773   -55.0881    -0.7692     1.4795    26.0000     4.0000     7.0000    26.0000    24.0000    10.0000     7.0000    24.0000     0.0014    -0.0024     0.0023    20.7699    41.5465     2.4421    14.4503    14.4438     0.006
     11     0.9910     0.9910     0.1501      2.023      1.000  14221.000      2.000    41.5367     0.0149    64.1885   -55.2675    -0.7692     1.4795    26.0000     4.0000     7.0000    26.0000    24.0000    10.0000     7.0000    24.0000     0.0014    -0.0024     0.0023    20.7699    41.5465     2.4494    14.4503    14.4438     0.006
     12     0.9941     0.9940     0.1497      2.000      8.000  14221.000      2.000    41.5367     0.0149    64.1010   -55.4526    -0.7692     1.4795    26.0000     4.0000     7.0000    26.0000    24.0000    10.0000     7.0000    24.0000     0.0014    -0.0024     0.0023    20.7699    41.5465     2.4569    14.4503    14.4438     0.006
     13     0.9970     0.9970     0.1499      2.015     13.000  14221.000      2.000    41.5367     0.0149    64.0128   -55.6324    -0.7692     1.4795    26.0000     4.0000     7.0000    26.0000    24.0000    10.0000     7.0000    24.0000     0.0014    -0.0024     0.0023    20.7699    41.5465     2.4643    14.4503    14.4438     0.006
     14     1.0000     1.0000     0.1499      1.996      6.000  14221.000      2.000    41.5367     0.0149    63.9244   -55.8142    -0.7691     1.4795    26.0000     4.0000     7.0000    26.0000    24.0000    10.0000     7.0000    24.0000     0.0014    -0.0024     0.0023    20.7699    41.5465     2.4717    14.4503    14.4438     0.006
     15     1.0030     1.0030     0.1499      2.003      5.000  14221.000      2.000    41.5367     0.0149    63.8371   -55.9946    -0.7692     1.4795    26.0000     4.0000     7.0000    26.0000    24.0000    10.0000     7.0000    24.0000     0.0014    -0.0024     0.0023    20.7699    41.5465     2.4790    14.4503    14.4438     0.006
     16     1.0060     1.0060     0.1500      2.005      8.000  14221.000      2.000    41.5367     0.0149    63.7478   -56.1766    -0.7692     1.4795    26.0000     4.0000     7.0000    26.0000    24.0000    10.0000     7.0000    24.0000     0.0014    -0.0024     0.0023    20.7699    41.5465     2.4864    14.4503    14.4437     0.006
     17     1.0090     1.0090     0.1502      2.008      8.000  14221.000      2.000    41.5367     0.0149    63.6588   -56.3588    -0.7692     1.4795    26.0000     4.0000     7.0000    26.0000    24.0000    10.0000     7.0000    24.0000     0.0014    -0.0024     0.0023    20.7699    41.5465     2.4938    14.4503    14.4438     0.006
     18     1.0120     1.0120     0.1502      2.006      5.000  14221.000      2.000    41.5367     0.0149    63.5699   -56.5410    -0.7692     1.4795    26.0000     4.0000     7.0000    26.0000    24.0000    10.0000     7.0000    24.0000     0.0014    -0.0024     0.0023    20.7699    41.5465     2.5012    14.4503    14.4438     0.006
     19     1.0150     1.0149     0.1502      1.986      3.000  14221.000      2.000    41.5367     0.0149    63.4816   -56.7232    -0.7692     1.4795    26.0000     4.0000     7.0000    26.0000    24.0000    10.0000     7.0000    24.0000     0.0014    -0.0024     0.0023    20.7699    41.5465     2.5086    14.4503    14.4438     0.006
     20     1.0180     1.0180     0.1502      1.990      6.000  14221.000      2.000    41.5367     0.0149    63.3926   -56.9068    -0.7692     1.4795    26.0000     4.0000     7.0000    26.0000    24.0000    10.0000     7.0000    24.0000     0.0014    -0.0024     0.0023    20.7699    41.5465     2.5161    14.4503    14.4438     0.006
     21     1.0210     1.0210     0.1499      2.017      4.000  14221.000      2.000    41.5367     0.0149    63.3034   -57.0930    -0.7692     1.4795    26.0000     4.0000     7.0000    26.0000    24.0000    10.0000     7.0000    24.0000     0.0014    -0.0024     0.0023    20.7699    41.5465     2.5236    14.4503    14.4438     0.006
     22     1.0241     1.0240     0.1496      1.984      0.000  14221.000      2.000    41.5367     0.0149    63.2155   -57.2778    -0.7692     1.4795    26.0000     4.0000     7.0000    26.0000    24.0000    10.0000     7.0000    24.0000     0.0014    -0.0024     0.0023    20.7699    41.5465     2.5311    14.4503    14.4438     0.006
     23     1.0271     1.0270     0.1497      2.006      2.000  14221.000      2.000    41.5367     0.0149    63.1260   -57.4610    -0.7692     1.4795    26.0000     4.0000     7.0000    26.0000    24.0000    10.0000     7.0000    24.0000     0.0014    -0.0024     0.0023    20.7699    41.5465     2.5385    14.4503    14.4438     0.006
     24     1.0300     1.0300     0.1498      1.979      5.000  14221.000      2.000    41.5367     0.0149    63.0369   -57.6430    -0.7692     1.4795    26.0000     4.0000     7.0000    26.0000    24.0000    10.0000     7.0000    24.0000     0.0014    -0.0024     0.0023    20.7699    41.5465     2.5458    14.4503    14.4438     0.006
     25     1.0330     1.0330     0.1501      2.025      3.000  14221.000      2.000    41.5367     0.0149    62.9473   -57.8244    -0.7692     1.4795    26.0000     4.0000     7.0000    26.0000    24.0000    10.0000     7.0000    24.0000     0.0014    -0.0024     0.0023    20.7698    41.5465     2.5532    14.4503    14.4438     0.006
     26     1.0360     1.0360     0.1500      2.005      1.000  14221.000      2.000    41.5367     0.0149    62.8582   -58.0084    -0.7692     1.4795    26.0000     4.0000     7.0000    26.0000    24.0000    10.0000     7.0000    24.0000     0.0014    -0.0024     0.0023    20.7698    41.5465     2.5606    14.4503    14.4438     0.006
     27     1.0390     1.0390     0.1499      2.016      0.000  14221.000      2.000    41.5367     0.0149    62.7689   -58.1932    -0.7692     1.4795    26.0000     4.0000     7.0000    26.0000    24.0000    10.0000     7.0000    24.0000     0.0014    -0.0024     0.0023    20.7698    41.5465     2.5680    14.4503    14.4438     0.006
# Sum of Counts = 120
# Center of Mass = 0.997033+/-0.128729
# Full Width Half-Maximum = 0.038589+/-0.049408
# 4:29:32 AM  5/29/2023   scan completed.
