# scan = 712
# date = 5/29/2023
# time = 6:58:27 AM
# proposal = 9879
# experiment = HB-1A  - Backend upgrade commissioning
# experiment_number = 978
# command = scan h 0.0028 k 0.0028 l 3.7 4.3 0.03
# builtin_command = scan h 0.0028 k 0.0028 l 3.7 4.3 0.03
# users = Feng Ye, John Carruth, Adam Aczel, Songxue Chi, Jaime Fernandez-Baca, Masaaki Matsuda, Tao Hong, Travis Williams, Wei Tian, Michael Cox
# local_contact = Wei Tian, Adam Aczel
# scan_title = La2Ni7, ( 0.000242 0.00024 3.999793 ), 40'-20'-S-20'-20' colli
# monochromator = PG002
# analyzer = Pg002
# sense = +-+
# collimation = 40-40-40-80
# samplename = Si powdre, Si crystal, FeGa alloy, La2Ni7 crystal, Ba2.8Sr0.2CoSn2O9 crystal
# sampletype = crystal
# samplemosaic = 30.000000
# latticeconstants = 5.084792,5.084792,24.669626,90.000000,90.000000,120.000000
# ubmatrix = -0.007838,-0.010887,0.040486,-0.193443,-0.199303,-0.001943,0.118692,-0.108301,-0.000494
# mode = 0
# plane_normal = 0.013424,0.025807,0.999577
# ubconf = UB27May2023_80143PM.ini
# preset_type = normal 
# preset_channel = mcu
# preset_value = 2.000000
# def_x = l
# def_y = detector
# col_headers = 
#   Pt.          h          k          l       time   detector    monitor        mcu         m2   rad_coll         s1         s2        sgl        sgu   slitb_bt   slitb_lf   slitb_rt   slitb_tp   slita_bt   slita_lf   slita_rt   slita_tp        stl        stu         sz         a1         a2          q         ei         ef          e
      1     0.0028     0.0028     3.7007      2.018      3.000  14221.000      2.000    41.5367     0.0149    -7.1659   -20.5629    -0.7691     1.4795    26.0000     4.0000     7.0000    26.0000    24.0000    10.0000     7.0000    24.0000     0.0014    -0.0025     0.0024    20.7703    41.5465     0.9426    14.4503    14.4437     0.006
      2     0.0028     0.0028     3.7294      2.034      2.000  14221.000      2.000    41.5367     0.0149    -7.2522   -20.7242    -0.7691     1.4795    26.0000     4.0000     7.0000    26.0000    24.0000    10.0000     7.0000    24.0000     0.0014    -0.0025     0.0024    20.7702    41.5465     0.9499    14.4503    14.4437     0.006
      3     0.0028     0.0028     3.7598      2.027      3.000  14221.000      2.000    41.5367     0.0149    -7.3405   -20.8949    -0.7691     1.4795    26.0000     4.0000     7.0000    26.0000    24.0000    10.0000     7.0000    24.0000     0.0014    -0.0025     0.0024    20.7702    41.5465     0.9576    14.4503    14.4437     0.006
      4     0.0028     0.0028     3.7899      2.017      4.000  14221.000      2.000    41.5367     0.0149    -7.4282   -21.0644    -0.7691     1.4795    26.0000     4.0000     7.0000    26.0000    24.0000    10.0000     7.0000    24.0000     0.0014    -0.0025     0.0024    20.7702    41.5465     0.9653    14.4503    14.4437     0.006
      5     0.0028     0.0028     3.8201      2.027      5.000  14221.000      2.000    41.5367     0.0149    -7.5148   -21.2340    -0.7691     1.4795    26.0000     4.0000     7.0000    26.0000    24.0000    10.0000     7.0000    24.0000     0.0014    -0.0025     0.0024    20.7701    41.5466     0.9730    14.4503    14.4437     0.006
      6     0.0028     0.0028     3.8502      1.978      1.000  14221.000      2.000    41.5367     0.0149    -7.6028   -21.4033    -0.7691     1.4795    26.0000     4.0000     7.0000    26.0000    24.0000    10.0000     7.0000    24.0000     0.0014    -0.0025     0.0024    20.7701    41.5465     0.9806    14.4503    14.4437     0.006
      7     0.0028     0.0028     3.8801      2.011      3.000  14221.000      2.000    41.5367     0.0149    -7.6893   -21.5714    -0.7691     1.4795    26.0000     4.0000     7.0000    26.0000    24.0000    10.0000     7.0000    24.0000     0.0014    -0.0024     0.0024    20.7701    41.5466     0.9883    14.4503    14.4437     0.006
      8     0.0028     0.0028     3.9095      1.999      3.000  14221.000      2.000    41.5367     0.0149    -7.7768   -21.7370    -0.7691     1.4795    26.0000     4.0000     7.0000    26.0000    24.0000    10.0000     7.0000    24.0000     0.0014    -0.0025     0.0024    20.7701    41.5465     0.9958    14.4503    14.4437     0.006
      9     0.0028     0.0028     3.9397      2.032      3.000  14221.000      2.000    41.5367     0.0149    -7.8637   -21.9071    -0.7691     1.4795    26.0000     4.0000     7.0000    26.0000    24.0000    10.0000     7.0000    24.0000     0.0014    -0.0025     0.0024    20.7701    41.5466     1.0034    14.4503    14.4437     0.006
     10     0.0028     0.0028     3.9695      2.006      7.000  14221.000      2.000    41.5367     0.0149    -7.9506   -22.0748    -0.7691     1.4795    26.0000     4.0000     7.0000    26.0000    24.0000    10.0000     7.0000    24.0000     0.0014    -0.0025     0.0023    20.7701    41.5466     1.0110    14.4503    14.4437     0.006
     11     0.0028     0.0028     3.9996      2.025     12.000  14221.000      2.000    41.5367     0.0149    -8.0381   -22.2440    -0.7691     1.4795    26.0000     4.0000     7.0000    26.0000    24.0000    10.0000     7.0000    24.0000     0.0014    -0.0025     0.0024    20.7701    41.5466     1.0187    14.4503    14.4437     0.006
     12     0.0028     0.0028     4.0299      1.986      8.000  14221.000      2.000    41.5367     0.0149    -8.1249   -22.4151    -0.7691     1.4795    26.0000     4.0000     7.0000    26.0000    24.0000    10.0000     7.0000    24.0000     0.0014    -0.0025     0.0024    20.7701    41.5466     1.0264    14.4503    14.4437     0.006
     13     0.0028     0.0028     4.0602      2.032      5.000  14221.000      2.000    41.5367     0.0149    -8.2121   -22.5857    -0.7691     1.4795    26.0000     4.0000     7.0000    26.0000    24.0000    10.0000     7.0000    24.0000     0.0014    -0.0025     0.0024    20.7700    41.5466     1.0341    14.4503    14.4437     0.006
     14     0.0028     0.0028     4.0905      1.984      9.000  14221.000      2.000    41.5367     0.0149    -8.2993   -22.7566    -0.7691     1.4795    26.0000     4.0000     7.0000    26.0000    24.0000    10.0000     7.0000    24.0000     0.0014    -0.0025     0.0024    20.7700    41.5466     1.0419    14.4503    14.4437     0.006
     15     0.0028     0.0028     4.1201      2.021      3.000  14221.000      2.000    41.5367     0.0149    -8.3874   -22.9232    -0.7691     1.4795    26.0000     4.0000     7.0000    26.0000    24.0000    10.0000     7.0000    24.0000     0.0014    -0.0025     0.0024    20.7700    41.5466     1.0494    14.4503    14.4437     0.006
     16     0.0028     0.0028     4.1505      2.041      1.000  14221.000      2.000    41.5367     0.0149    -8.4737   -23.0947    -0.7691     1.4795    26.0000     4.0000     7.0000    26.0000    24.0000    10.0000     7.0000    24.0000     0.0014    -0.0025     0.0024    20.7700    41.5466     1.0571    14.4503    14.4437     0.006
     17     0.0028     0.0028     4.1802      2.001      3.000  14221.000      2.000    41.5367     0.0149    -8.5611   -23.2623    -0.7691     1.4795    26.0000     4.0000     7.0000    26.0000    24.0000    10.0000     7.0000    24.0000     0.0014    -0.0025     0.0024    20.7700    41.5466     1.0647    14.4503    14.4437     0.006
     18     0.0028     0.0028     4.2095      1.962      4.000  14221.000      2.000    41.5367     0.0149    -8.6483   -23.4274    -0.7692     1.4795    26.0000     4.0000     7.0000    26.0000    24.0000    10.0000     7.0000    24.0000     0.0014    -0.0025     0.0024    20.7700    41.5466     1.0721    14.4503    14.4437     0.006
     19     0.0028     0.0028     4.2396      2.000      4.000  14221.000      2.000    41.5367     0.0149    -8.7346   -23.5978    -0.7692     1.4795    26.0000     4.0000     7.0000    26.0000    24.0000    10.0000     7.0000    24.0000     0.0014    -0.0025     0.0024    20.7700    41.5466     1.0798    14.4503    14.4437     0.006
     20     0.0028     0.0028     4.2699      2.000      2.000  14221.000      2.000    41.5367     0.0149    -8.8223   -23.7687    -0.7691     1.4795    26.0000     4.0000     7.0000    26.0000    24.0000    10.0000     7.0000    24.0000     0.0014    -0.0025     0.0024    20.7700    41.5466     1.0875    14.4503    14.4437     0.006
     21     0.0028     0.0028     4.2998      1.991      2.000  14221.000      2.000    41.5367     0.0149    -8.9088   -23.9374    -0.7691     1.4795    26.0000     4.0000     7.0000    26.0000    24.0000    10.0000     7.0000    24.0000     0.0014    -0.0025     0.0024    20.7700    41.5466     1.0951    14.4503    14.4437     0.006
# Sum of Counts = 87
# Center of Mass = 4.003013+/-0.607156
# Full Width Half-Maximum = 0.305235+/-0.242779
# 7:03:51 AM  5/29/2023   scan completed.
