# scan = 606
# date = 5/28/2023
# time = 4:20:34 AM
# proposal = 9879
# experiment = HB-1A  - Backend upgrade commissioning
# experiment_number = 978
# command = th2th 3 -3 0.15
# builtin_command = scan s2 @(s2)+3 @(s2)+-3 0.150000 s1 @(s1)+(3/2) @(s1)+(-3/2) 0.075000
# users = Feng Ye, John Carruth, Adam Aczel, Songxue Chi, Jaime Fernandez-Baca, Masaaki Matsuda, Tao Hong, Travis Williams, Wei Tian, Michael Cox
# local_contact = Wei Tian, Adam Aczel
# scan_title = La2Ni7, ( 0.999965 0.999925 8.997694 ), th2th, 40'-20'-S-20'-20' colli
# monochromator = PG002
# analyzer = Pg002
# sense = +-+
# collimation = 40-40-40-80
# samplename = Si powdre, Si crystal, FeGa alloy, La2Ni7 crystal, Ba2.8Sr0.2CoSn2O9 crystal
# sampletype = crystal
# samplemosaic = 30.000000
# latticeconstants = 5.084792,5.084792,24.669626,90.000000,90.000000,120.000000
# ubmatrix = -0.007838,-0.010887,0.040486,-0.193443,-0.199303,-0.001943,0.118692,-0.108301,-0.000494
# mode = 0
# plane_normal = 0.013424,0.025807,0.999577
# ubconf = UB27May2023_80143PM.ini
# preset_type = normal 
# preset_channel = mcu
# preset_value = 10.000000
# def_x = s2
# def_y = detector
# col_headers = 
#   Pt.         s2         s1       time   detector    monitor        mcu         m2   rad_coll        sgl        sgu   slitb_bt   slitb_lf   slitb_rt   slitb_tp   slita_bt   slita_lf   slita_rt   slita_tp        stl        stu         sz         a1         a2          q          h          k          l         ei         ef          e
      1   -76.3129    11.7231     10.174      7.000  71101.000     10.000    41.5367     0.0149    -0.7692     1.4795    26.0000     4.0000     7.0000    26.0000    24.0000    10.0000     7.0000    24.0000     0.0014    -0.0024     0.0024    20.7699    41.5465     3.2626     0.9680     0.9680     8.7104    14.4503    14.4438     0.006
      2   -76.4625    11.6483     10.176      6.000  71101.000     10.000    41.5367     0.0149    -0.7692     1.4795    26.0000     4.0000     7.0000    26.0000    24.0000    10.0000     7.0000    24.0000     0.0014    -0.0024     0.0024    20.7699    41.5465     3.2680     0.9696     0.9696     8.7249    14.4503    14.4438     0.006
      3   -76.6130    11.5727     10.232     11.000  71101.000     10.000    41.5367     0.0149    -0.7692     1.4795    26.0000     4.0000     7.0000    26.0000    24.0000    10.0000     7.0000    24.0000     0.0014    -0.0024     0.0024    20.7699    41.5465     3.2735     0.9712     0.9712     8.7395    14.4503    14.4438     0.006
      4   -76.7641    11.4983     10.229      7.000  71101.000     10.000    41.5367     0.0149    -0.7692     1.4795    26.0000     4.0000     7.0000    26.0000    24.0000    10.0000     7.0000    24.0000     0.0014    -0.0024     0.0024    20.7699    41.5465     3.2789     0.9729     0.9728     8.7539    14.4503    14.4438     0.006
      5   -76.9136    11.4231     10.117     10.000  71101.000     10.000    41.5367     0.0149    -0.7692     1.4795    26.0000     4.0000     7.0000    26.0000    24.0000    10.0000     7.0000    24.0000     0.0014    -0.0024     0.0024    20.7699    41.5465     3.2843     0.9745     0.9744     8.7684    14.4503    14.4438     0.006
      6   -77.0627    11.3478     10.268      8.000  71101.000     10.000    41.5367     0.0149    -0.7692     1.4795    26.0000     4.0000     7.0000    26.0000    24.0000    10.0000     7.0000    24.0000     0.0014    -0.0024     0.0024    20.7699    41.5465     3.2897     0.9761     0.9760     8.7828    14.4503    14.4438     0.006
      7   -77.2145    11.2732     10.245      9.000  71101.000     10.000    41.5367     0.0149    -0.7692     1.4795    26.0000     4.0000     7.0000    26.0000    24.0000    10.0000     7.0000    24.0000     0.0014    -0.0024     0.0024    20.7699    41.5465     3.2952     0.9777     0.9777     8.7972    14.4503    14.4438     0.006
      8   -77.3650    11.1985     10.214      5.000  71101.000     10.000    41.5367     0.0149    -0.7692     1.4795    26.0000     4.0000     7.0000    26.0000    24.0000    10.0000     7.0000    24.0000     0.0014    -0.0025     0.0024    20.7699    41.5465     3.3006     0.9793     0.9793     8.8116    14.4503    14.4438     0.006
      9   -77.5124    11.1232     10.163     17.000  71101.000     10.000    41.5367     0.0149    -0.7692     1.4795    26.0000     4.0000     7.0000    26.0000    24.0000    10.0000     7.0000    24.0000     0.0014    -0.0024     0.0024    20.7699    41.5465     3.3059     0.9809     0.9808     8.8260    14.4503    14.4438     0.006
     10   -77.6635    11.0483     10.150     14.000  71101.000     10.000    41.5367     0.0149    -0.7692     1.4795    26.0000     4.0000     7.0000    26.0000    24.0000    10.0000     7.0000    24.0000     0.0014    -0.0024     0.0024    20.7698    41.5465     3.3113     0.9825     0.9824     8.8404    14.4503    14.4438     0.006
     11   -77.8172    10.9734     10.162     27.000  71101.000     10.000    41.5367     0.0149    -0.7692     1.4795    26.0000     4.0000     7.0000    26.0000    24.0000    10.0000     7.0000    24.0000     0.0014    -0.0024     0.0024    20.7698    41.5465     3.3169     0.9842     0.9841     8.8548    14.4503    14.4438     0.006
     12   -77.9631    10.8989     10.208     22.000  71101.000     10.000    41.5367     0.0149    -0.7692     1.4795    26.0000     4.0000     7.0000    26.0000    24.0000    10.0000     7.0000    24.0000     0.0014    -0.0024     0.0024    20.7698    41.5465     3.3221     0.9857     0.9856     8.8690    14.4503    14.4438     0.006
     13   -78.1125    10.8235     10.240     23.000  71101.000     10.000    41.5367     0.0149    -0.7692     1.4795    26.0000     4.0000     7.0000    26.0000    24.0000    10.0000     7.0000    24.0000     0.0014    -0.0024     0.0024    20.7698    41.5465     3.3274     0.9873     0.9872     8.8834    14.4503    14.4438     0.006
     14   -78.2630    10.7484     10.116     20.000  71101.000     10.000    41.5367     0.0149    -0.7692     1.4795    26.0000     4.0000     7.0000    26.0000    24.0000    10.0000     7.0000    24.0000     0.0014    -0.0024     0.0024    20.7698    41.5465     3.3328     0.9889     0.9888     8.8978    14.4503    14.4438     0.006
     15   -78.4162    10.6730     10.185     24.000  71101.000     10.000    41.5367     0.0149    -0.7692     1.4795    26.0000     4.0000     7.0000    26.0000    24.0000    10.0000     7.0000    24.0000     0.0014    -0.0024     0.0024    20.7698    41.5465     3.3383     0.9905     0.9905     8.9122    14.4503    14.4438     0.006
     16   -78.5665    10.5983     10.197     28.000  71101.000     10.000    41.5367     0.0149    -0.7692     1.4795    26.0000     4.0000     7.0000    26.0000    24.0000    10.0000     7.0000    24.0000     0.0014    -0.0024     0.0024    20.7698    41.5465     3.3437     0.9921     0.9921     8.9264    14.4503    14.4438     0.006
     17   -78.7166    10.5228     10.227     16.000  71101.000     10.000    41.5367     0.0149    -0.7692     1.4795    26.0000     4.0000     7.0000    26.0000    24.0000    10.0000     7.0000    24.0000     0.0014    -0.0024     0.0024    20.7698    41.5465     3.3490     0.9937     0.9936     8.9408    14.4503    14.4438     0.006
     18   -78.8641    10.4481     10.183     18.000  71101.000     10.000    41.5367     0.0149    -0.7692     1.4795    26.0000     4.0000     7.0000    26.0000    24.0000    10.0000     7.0000    24.0000     0.0014    -0.0024     0.0024    20.7698    41.5465     3.3543     0.9952     0.9952     8.9550    14.4503    14.4438     0.006
     19   -79.0134    10.3728     10.272     14.000  71101.000     10.000    41.5367     0.0149    -0.7692     1.4795    26.0000     4.0000     7.0000    26.0000    24.0000    10.0000     7.0000    24.0000     0.0014    -0.0025     0.0024    20.7698    41.5465     3.3596     0.9968     0.9967     8.9693    14.4503    14.4438     0.006
     20   -79.1624    10.2983     10.128      9.000  71101.000     10.000    41.5367     0.0149    -0.7692     1.4795    26.0000     4.0000     7.0000    26.0000    24.0000    10.0000     7.0000    24.0000     0.0014    -0.0024     0.0024    20.7698    41.5465     3.3649     0.9984     0.9983     8.9834    14.4503    14.4438     0.006
     21   -79.3112    10.2233     10.216     14.000  71101.000     10.000    41.5367     0.0149    -0.7692     1.4795    26.0000     4.0000     7.0000    26.0000    24.0000    10.0000     7.0000    24.0000     0.0014    -0.0024     0.0024    20.7698    41.5465     3.3701     0.9999     0.9999     8.9976    14.4503    14.4438     0.006
     22   -79.4649    10.1483     10.292     18.000  71101.000     10.000    41.5367     0.0149    -0.7692     1.4795    26.0000     4.0000     7.0000    26.0000    24.0000    10.0000     7.0000    24.0000     0.0014    -0.0024     0.0024    20.7698    41.5465     3.3756     1.0016     1.0015     9.0119    14.4503    14.4438     0.006
     23   -79.6134    10.0733     10.268     10.000  71101.000     10.000    41.5367     0.0149    -0.7692     1.4795    26.0000     4.0000     7.0000    26.0000    24.0000    10.0000     7.0000    24.0000     0.0014    -0.0025     0.0024    20.7698    41.5465     3.3809     1.0031     1.0031     9.0261    14.4503    14.4438     0.006
     24   -79.7634     9.9985     10.191     11.000  71101.000     10.000    41.5367     0.0149    -0.7692     1.4795    26.0000     4.0000     7.0000    26.0000    24.0000    10.0000     7.0000    24.0000     0.0014    -0.0024     0.0024    20.7698    41.5465     3.3862     1.0047     1.0046     9.0402    14.4503    14.4438     0.006
     25   -79.9126     9.9235     10.277     11.000  71101.000     10.000    41.5367     0.0149    -0.7692     1.4795    26.0000     4.0000     7.0000    26.0000    24.0000    10.0000     7.0000    24.0000     0.0014    -0.0024     0.0024    20.7698    41.5465     3.3914     1.0062     1.0062     9.0543    14.4503    14.4438     0.006
     26   -80.0655     9.8488     10.251      9.000  71101.000     10.000    41.5367     0.0149    -0.7692     1.4795    26.0000     4.0000     7.0000    26.0000    24.0000    10.0000     7.0000    24.0000     0.0014    -0.0024     0.0024    20.7698    41.5465     3.3968     1.0079     1.0078     9.0685    14.4503    14.4438     0.006
     27   -80.2159     9.7731     10.162      7.000  71101.000     10.000    41.5367     0.0149    -0.7692     1.4795    26.0000     4.0000     7.0000    26.0000    24.0000    10.0000     7.0000    24.0000     0.0014    -0.0024     0.0024    20.7698    41.5465     3.4021     1.0094     1.0094     9.0827    14.4503    14.4438     0.006
     28   -80.3652     9.6986     10.204      4.000  71101.000     10.000    41.5367     0.0149    -0.7692     1.4795    26.0000     4.0000     7.0000    26.0000    24.0000    10.0000     7.0000    24.0000     0.0014    -0.0024     0.0024    20.7698    41.5465     3.4074     1.0110     1.0110     9.0967    14.4503    14.4438     0.006
     29   -80.5125     9.6230     10.216      2.000  71101.000     10.000    41.5367     0.0149    -0.7692     1.4795    26.0000     4.0000     7.0000    26.0000    24.0000    10.0000     7.0000    24.0000     0.0014    -0.0024     0.0024    20.7698    41.5465     3.4126     1.0125     1.0125     9.1109    14.4503    14.4438     0.006
     30   -80.6638     9.5480     10.165      7.000  71101.000     10.000    41.5367     0.0149    -0.7692     1.4795    26.0000     4.0000     7.0000    26.0000    24.0000    10.0000     7.0000    24.0000     0.0014    -0.0024     0.0024    20.7698    41.5465     3.4179     1.0141     1.0140     9.1250    14.4503    14.4438     0.006
     31   -80.8130     9.4731     10.196      5.000  71101.000     10.000    41.5367     0.0149    -0.7692     1.4795    26.0000     4.0000     7.0000    26.0000    24.0000    10.0000     7.0000    24.0000     0.0014    -0.0024     0.0024    20.7698    41.5465     3.4231     1.0156     1.0156     9.1390    14.4503    14.4438     0.006
     32   -80.9617     9.3982     10.134      4.000  71101.000     10.000    41.5367     0.0149    -0.7692     1.4795    26.0000     4.0000     7.0000    26.0000    24.0000    10.0000     7.0000    24.0000     0.0014    -0.0024     0.0024    20.7698    41.5465     3.4284     1.0172     1.0171     9.1531    14.4503    14.4437     0.006
     33   -81.1126     9.3228     10.234      2.000  71101.000     10.000    41.5367     0.0149    -0.7692     1.4795    26.0000     4.0000     7.0000    26.0000    24.0000    10.0000     7.0000    24.0000     0.0014    -0.0024     0.0024    20.7698    41.5465     3.4336     1.0187     1.0187     9.1672    14.4503    14.4438     0.006
     34   -81.2636     9.2483     10.233     10.000  71101.000     10.000    41.5367     0.0149    -0.7692     1.4795    26.0000     4.0000     7.0000    26.0000    24.0000    10.0000     7.0000    24.0000     0.0014    -0.0024     0.0024    20.7698    41.5465     3.4389     1.0203     1.0203     9.1811    14.4503    14.4437     0.006
     35   -81.4147     9.1731     10.186     15.000  71101.000     10.000    41.5367     0.0149    -0.7692     1.4795    26.0000     4.0000     7.0000    26.0000    24.0000    10.0000     7.0000    24.0000     0.0014    -0.0024     0.0024    20.7698    41.5465     3.4442     1.0219     1.0219     9.1952    14.4503    14.4438     0.006
     36   -81.5656     9.0986     10.165      8.000  71101.000     10.000    41.5367     0.0149    -0.7692     1.4795    26.0000     4.0000     7.0000    26.0000    24.0000    10.0000     7.0000    24.0000     0.0014    -0.0024     0.0024    20.7698    41.5465     3.4495     1.0235     1.0234     9.2091    14.4503    14.4437     0.006
     37   -81.7173     9.0232     10.226      7.000  71101.000     10.000    41.5367     0.0149    -0.7692     1.4795    26.0000     4.0000     7.0000    26.0000    24.0000    10.0000     7.0000    24.0000     0.0014    -0.0024     0.0024    20.7698    41.5465     3.4548     1.0251     1.0250     9.2231    14.4503    14.4437     0.006
     38   -81.8672     8.9486     10.181      8.000  71101.000     10.000    41.5367     0.0149    -0.7692     1.4795    26.0000     4.0000     7.0000    26.0000    24.0000    10.0000     7.0000    24.0000     0.0014    -0.0024     0.0024    20.7698    41.5465     3.4600     1.0266     1.0266     9.2370    14.4503    14.4437     0.006
     39   -82.0175     8.8735     10.236      6.000  71101.000     10.000    41.5367     0.0149    -0.7692     1.4795    26.0000     4.0000     7.0000    26.0000    24.0000    10.0000     7.0000    24.0000     0.0014    -0.0025     0.0024    20.7698    41.5465     3.4652     1.0282     1.0281     9.2510    14.4503    14.4438     0.006
     40   -82.1648     8.7989     10.235      7.000  71101.000     10.000    41.5367     0.0149    -0.7692     1.4795    26.0000     4.0000     7.0000    26.0000    24.0000    10.0000     7.0000    24.0000     0.0014    -0.0024     0.0024    20.7698    41.5465     3.4703     1.0297     1.0296     9.2648    14.4503    14.4437     0.006
     41   -82.3137     8.7232     10.191     11.000  71101.000     10.000    41.5367     0.0149    -0.7692     1.4795    26.0000     4.0000     7.0000    26.0000    24.0000    10.0000     7.0000    24.0000     0.0014    -0.0024     0.0024    20.7698    41.5465     3.4755     1.0312     1.0311     9.2788    14.4503    14.4437     0.006
# Sum of Counts = 471
# Center of Mass = -78.984679+/-5.147420
# Full Width Half-Maximum = 3.114700+/-1.548033
# 4:32:10 AM  5/28/2023   scan completed.
