# scan = 701
# date = 5/29/2023
# time = 5:58:25 AM
# proposal = 9879
# experiment = HB-1A  - Backend upgrade commissioning
# experiment_number = 978
# command = scan h -0.0016 k -0.0016 l 3.7 4.3 0.03
# builtin_command = scan h -0.0016 k -0.0016 l 3.7 4.3 0.03
# users = Feng Ye, John Carruth, Adam Aczel, Songxue Chi, Jaime Fernandez-Baca, Masaaki Matsuda, Tao Hong, Travis Williams, Wei Tian, Michael Cox
# local_contact = Wei Tian, Adam Aczel
# scan_title = La2Ni7, ( 0.000242 0.00024 3.999793 ), 40'-20'-S-20'-20' colli
# monochromator = PG002
# analyzer = Pg002
# sense = +-+
# collimation = 40-40-40-80
# samplename = Si powdre, Si crystal, FeGa alloy, La2Ni7 crystal, Ba2.8Sr0.2CoSn2O9 crystal
# sampletype = crystal
# samplemosaic = 30.000000
# latticeconstants = 5.084792,5.084792,24.669626,90.000000,90.000000,120.000000
# ubmatrix = -0.007838,-0.010887,0.040486,-0.193443,-0.199303,-0.001943,0.118692,-0.108301,-0.000494
# mode = 0
# plane_normal = 0.013424,0.025807,0.999577
# ubconf = UB27May2023_80143PM.ini
# preset_type = normal 
# preset_channel = mcu
# preset_value = 2.000000
# def_x = l
# def_y = detector
# col_headers = 
#   Pt.          h          k          l       time   detector    monitor        mcu         m2   rad_coll         s1         s2        sgl        sgu   slitb_bt   slitb_lf   slitb_rt   slitb_tp   slita_bt   slita_lf   slita_rt   slita_tp        stl        stu         sz         a1         a2          q         ei         ef          e
      1    -0.0016    -0.0016     3.7007      1.964      5.000  14221.000      2.000    41.5367     0.0149    -7.8269   -20.5625    -0.7691     1.4795    26.0000     4.0000     7.0000    26.0000    24.0000    10.0000     7.0000    24.0000     0.0014    -0.0025     0.0024    20.7702    41.5465     0.9425    14.4503    14.4437     0.006
      2    -0.0016    -0.0016     3.7294      2.008      0.000  14221.000      2.000    41.5367     0.0149    -7.9084   -20.7240    -0.7691     1.4795    26.0000     4.0000     7.0000    26.0000    24.0000    10.0000     7.0000    24.0000     0.0014    -0.0025     0.0024    20.7702    41.5465     0.9499    14.4503    14.4437     0.006
      3    -0.0016    -0.0016     3.7599      1.989      6.000  14221.000      2.000    41.5367     0.0149    -7.9899   -20.8954    -0.7691     1.4795    26.0000     4.0000     7.0000    26.0000    24.0000    10.0000     7.0000    24.0000     0.0014    -0.0025     0.0024    20.7702    41.5465     0.9576    14.4503    14.4437     0.006
      4    -0.0016    -0.0016     3.7898      2.025      2.000  14221.000      2.000    41.5367     0.0149    -8.0729   -21.0632    -0.7692     1.4795    26.0000     4.0000     7.0000    26.0000    24.0000    10.0000     7.0000    24.0000     0.0014    -0.0025     0.0024    20.7701    41.5465     0.9652    14.4503    14.4437     0.006
      5    -0.0016    -0.0016     3.8201      2.022      0.000  14221.000      2.000    41.5367     0.0149    -8.1546   -21.2338    -0.7691     1.4795    26.0000     4.0000     7.0000    26.0000    24.0000    10.0000     7.0000    24.0000     0.0014    -0.0025     0.0024    20.7702    41.5466     0.9730    14.4503    14.4437     0.006
      6    -0.0016    -0.0016     3.8501      2.027      3.000  14221.000      2.000    41.5367     0.0149    -8.2374   -21.4026    -0.7691     1.4795    26.0000     4.0000     7.0000    26.0000    24.0000    10.0000     7.0000    24.0000     0.0014    -0.0024     0.0024    20.7701    41.5465     0.9806    14.4503    14.4437     0.006
      7    -0.0016    -0.0016     3.8800      2.001      3.000  14221.000      2.000    41.5367     0.0149    -8.3193   -21.5707    -0.7692     1.4795    26.0000     4.0000     7.0000    26.0000    24.0000    10.0000     7.0000    24.0000     0.0014    -0.0024     0.0024    20.7701    41.5465     0.9882    14.4503    14.4437     0.006
      8    -0.0016    -0.0016     3.9096      2.015      3.000  14221.000      2.000    41.5367     0.0149    -8.4028   -21.7370    -0.7691     1.4795    26.0000     4.0000     7.0000    26.0000    24.0000    10.0000     7.0000    24.0000     0.0014    -0.0025     0.0024    20.7701    41.5466     0.9957    14.4503    14.4437     0.006
      9    -0.0016    -0.0016     3.9398      1.978      7.000  14221.000      2.000    41.5367     0.0149    -8.4845   -21.9071    -0.7691     1.4795    26.0000     4.0000     7.0000    26.0000    24.0000    10.0000     7.0000    24.0000     0.0014    -0.0025     0.0024    20.7701    41.5466     1.0034    14.4503    14.4437     0.006
     10    -0.0016    -0.0016     3.9695      1.993     17.000  14221.000      2.000    41.5367     0.0149    -8.5676   -22.0742    -0.7691     1.4795    26.0000     4.0000     7.0000    26.0000    24.0000    10.0000     7.0000    24.0000     0.0014    -0.0024     0.0024    20.7701    41.5466     1.0110    14.4503    14.4437     0.006
     11    -0.0016    -0.0016     3.9997      2.020    100.000  14221.000      2.000    41.5367     0.0149    -8.6493   -22.2443    -0.7691     1.4795    26.0000     4.0000     7.0000    26.0000    24.0000    10.0000     7.0000    24.0000     0.0014    -0.0025     0.0023    20.7701    41.5466     1.0187    14.4503    14.4437     0.006
     12    -0.0016    -0.0016     4.0299      2.007    126.000  14221.000      2.000    41.5367     0.0149    -8.7323   -22.4144    -0.7691     1.4795    26.0000     4.0000     7.0000    26.0000    24.0000    10.0000     7.0000    24.0000     0.0014    -0.0025     0.0023    20.7701    41.5466     1.0264    14.4503    14.4437     0.006
     13    -0.0016    -0.0016     4.0602      2.018     59.000  14221.000      2.000    41.5367     0.0149    -8.8147   -22.5854    -0.7691     1.4795    26.0000     4.0000     7.0000    26.0000    24.0000    10.0000     7.0000    24.0000     0.0014    -0.0025     0.0024    20.7700    41.5466     1.0341    14.4503    14.4437     0.006
     14    -0.0016    -0.0016     4.0905      2.005      8.000  14221.000      2.000    41.5367     0.0149    -8.8977   -22.7560    -0.7691     1.4795    26.0000     4.0000     7.0000    26.0000    24.0000    10.0000     7.0000    24.0000     0.0014    -0.0025     0.0024    20.7700    41.5466     1.0418    14.4503    14.4437     0.006
     15    -0.0016    -0.0016     4.1206      2.014      5.000  14221.000      2.000    41.5367     0.0149    -8.9797   -22.9260    -0.7691     1.4795    26.0000     4.0000     7.0000    26.0000    24.0000    10.0000     7.0000    24.0000     0.0014    -0.0025     0.0024    20.7700    41.5466     1.0495    14.4503    14.4437     0.006
     16    -0.0016    -0.0016     4.1505      2.000      2.000  14221.000      2.000    41.5367     0.0149    -9.0630   -23.0941    -0.7692     1.4795    26.0000     4.0000     7.0000    26.0000    24.0000    10.0000     7.0000    24.0000     0.0014    -0.0025     0.0024    20.7700    41.5466     1.0571    14.4503    14.4437     0.006
     17    -0.0016    -0.0016     4.1800      2.011      5.000  14221.000      2.000    41.5367     0.0149    -9.1457   -23.2610    -0.7691     1.4795    26.0000     4.0000     7.0000    26.0000    24.0000    10.0000     7.0000    24.0000     0.0014    -0.0024     0.0024    20.7700    41.5466     1.0646    14.4503    14.4437     0.006
     18    -0.0016    -0.0016     4.2097      1.993      1.000  14221.000      2.000    41.5367     0.0149    -9.2281   -23.4283    -0.7691     1.4795    26.0000     4.0000     7.0000    26.0000    24.0000    10.0000     7.0000    24.0000     0.0014    -0.0025     0.0023    20.7700    41.5466     1.0722    14.4503    14.4437     0.006
     19    -0.0016    -0.0016     4.2397      2.019      1.000  14221.000      2.000    41.5367     0.0149    -9.3120   -23.5979    -0.7691     1.4795    26.0000     4.0000     7.0000    26.0000    24.0000    10.0000     7.0000    24.0000     0.0014    -0.0025     0.0024    20.7700    41.5466     1.0798    14.4503    14.4437     0.006
     20    -0.0016    -0.0016     4.2700      2.032      2.000  14221.000      2.000    41.5367     0.0149    -9.3949   -23.7686    -0.7691     1.4795    26.0000     4.0000     7.0000    26.0000    24.0000    10.0000     7.0000    24.0000     0.0014    -0.0025     0.0024    20.7700    41.5466     1.0875    14.4503    14.4437     0.006
     21    -0.0016    -0.0016     4.2999      2.014      4.000  14221.000      2.000    41.5367     0.0149    -9.4779   -23.9376    -0.7691     1.4795    26.0000     4.0000     7.0000    26.0000    24.0000    10.0000     7.0000    24.0000     0.0014    -0.0024     0.0024    20.7700    41.5466     1.0952    14.4503    14.4437     0.006
# Sum of Counts = 359
# Center of Mass = 4.018462+/-0.299964
# Full Width Half-Maximum = 0.157102+/-0.098988
# 6:04:03 AM  5/29/2023   scan completed.
