# scan = 675
# date = 5/29/2023
# time = 3:17:38 AM
# proposal = 9879
# experiment = HB-1A  - Backend upgrade commissioning
# experiment_number = 978
# command = scan h 0.961 1.039 0.003 k 0.961 1.039 0.003 l 0.05
# builtin_command = scan h 0.961 1.039 0.003 k 0.961 1.039 0.003 l 0.05
# users = Feng Ye, John Carruth, Adam Aczel, Songxue Chi, Jaime Fernandez-Baca, Masaaki Matsuda, Tao Hong, Travis Williams, Wei Tian, Michael Cox
# local_contact = Wei Tian, Adam Aczel
# scan_title = La2Ni7, ( 0.999916 0.99988 -0.002084 ), 40'-20'-S-20'-20' colli
# monochromator = PG002
# analyzer = Pg002
# sense = +-+
# collimation = 40-40-40-80
# samplename = Si powdre, Si crystal, FeGa alloy, La2Ni7 crystal, Ba2.8Sr0.2CoSn2O9 crystal
# sampletype = crystal
# samplemosaic = 30.000000
# latticeconstants = 5.084792,5.084792,24.669626,90.000000,90.000000,120.000000
# ubmatrix = -0.007838,-0.010887,0.040486,-0.193443,-0.199303,-0.001943,0.118692,-0.108301,-0.000494
# mode = 0
# plane_normal = 0.013424,0.025807,0.999577
# ubconf = UB27May2023_80143PM.ini
# preset_type = normal 
# preset_channel = mcu
# preset_value = 2.000000
# def_x = h
# def_y = detector
# col_headers = 
#   Pt.          h          k          l       time   detector    monitor        mcu         m2   rad_coll         s1         s2        sgl        sgu   slitb_bt   slitb_lf   slitb_rt   slitb_tp   slita_bt   slita_lf   slita_rt   slita_tp        stl        stu         sz         a1         a2          q         ei         ef          e
      1     0.9610     0.9610     0.0500      2.011      1.000  14221.000      2.000    41.5367     0.0149    65.6825   -53.4531    -0.7692     1.4795    26.0000     4.0000     7.0000    26.0000    24.0000    10.0000     7.0000    24.0000     0.0014    -0.0024     0.0023    20.7701    41.5465     2.3750    14.4503    14.4438     0.006
      2     0.9640     0.9639     0.0503      2.003      1.000  14221.000      2.000    41.5367     0.0149    65.5929   -53.6307    -0.7692     1.4795    26.0000     4.0000     7.0000    26.0000    24.0000    10.0000     7.0000    24.0000     0.0014    -0.0024     0.0023    20.7700    41.5465     2.3823    14.4503    14.4438     0.006
      3     0.9670     0.9670     0.0500      1.998      2.000  14221.000      2.000    41.5367     0.0149    65.5038   -53.8145    -0.7692     1.4795    26.0000     4.0000     7.0000    26.0000    24.0000    10.0000     7.0000    24.0000     0.0014    -0.0024     0.0023    20.7700    41.5465     2.3899    14.4503    14.4437     0.006
      4     0.9700     0.9700     0.0498      2.000      2.000  14221.000      2.000    41.5367     0.0149    65.4148   -53.9960    -0.7692     1.4795    26.0000     4.0000     7.0000    26.0000    24.0000    10.0000     7.0000    24.0000     0.0014    -0.0024     0.0023    20.7700    41.5465     2.3973    14.4503    14.4438     0.006
      5     0.9730     0.9730     0.0499      2.032      3.000  14221.000      2.000    41.5367     0.0149    65.3255   -54.1766    -0.7692     1.4795    26.0000     4.0000     7.0000    26.0000    24.0000    10.0000     7.0000    24.0000     0.0014    -0.0024     0.0023    20.7700    41.5465     2.4047    14.4503    14.4438     0.006
      6     0.9760     0.9760     0.0500      1.998      8.000  14221.000      2.000    41.5367     0.0149    65.2364   -54.3553    -0.7692     1.4795    26.0000     4.0000     7.0000    26.0000    24.0000    10.0000     7.0000    24.0000     0.0014    -0.0024     0.0023    20.7700    41.5465     2.4121    14.4503    14.4438     0.006
      7     0.9790     0.9789     0.0503      1.988     10.000  14221.000      2.000    41.5367     0.0149    65.1466   -54.5332    -0.7692     1.4795    26.0000     4.0000     7.0000    26.0000    24.0000    10.0000     7.0000    24.0000     0.0014    -0.0024     0.0023    20.7700    41.5465     2.4194    14.4503    14.4438     0.006
      8     0.9820     0.9819     0.0502      1.986     10.000  14221.000      2.000    41.5367     0.0149    65.0571   -54.7154    -0.7692     1.4795    26.0000     4.0000     7.0000    26.0000    24.0000    10.0000     7.0000    24.0000     0.0014    -0.0024     0.0023    20.7700    41.5465     2.4268    14.4503    14.4438     0.006
      9     0.9850     0.9849     0.0501      2.014     13.000  14221.000      2.000    41.5367     0.0149    64.9679   -54.8967    -0.7692     1.4795    26.0000     4.0000     7.0000    26.0000    24.0000    10.0000     7.0000    24.0000     0.0014    -0.0024     0.0023    20.7700    41.5465     2.4342    14.4503    14.4438     0.006
     10     0.9880     0.9880     0.0498      2.014     20.000  14221.000      2.000    41.5367     0.0149    64.8782   -55.0808    -0.7692     1.4795    26.0000     4.0000     7.0000    26.0000    24.0000    10.0000     7.0000    24.0000     0.0014    -0.0024     0.0023    20.7699    41.5465     2.4418    14.4503    14.4437     0.006
     11     0.9910     0.9910     0.0500      1.981     51.000  14221.000      2.000    41.5367     0.0149    64.7882   -55.2611    -0.7692     1.4795    26.0000     4.0000     7.0000    26.0000    24.0000    10.0000     7.0000    24.0000     0.0014    -0.0024     0.0023    20.7699    41.5465     2.4491    14.4503    14.4438     0.006
     12     0.9941     0.9940     0.0497      1.988    132.000  14221.000      2.000    41.5367     0.0149    64.6979   -55.4468    -0.7692     1.4795    26.0000     4.0000     7.0000    26.0000    24.0000    10.0000     7.0000    24.0000     0.0014    -0.0024     0.0023    20.7699    41.5465     2.4567    14.4503    14.4438     0.006
     13     0.9970     0.9970     0.0500      2.009    230.000  14221.000      2.000    41.5367     0.0149    64.6078   -55.6258    -0.7692     1.4795    26.0000     4.0000     7.0000    26.0000    24.0000    10.0000     7.0000    24.0000     0.0014    -0.0024     0.0023    20.7699    41.5465     2.4640    14.4503    14.4438     0.006
     14     1.0000     1.0000     0.0500      2.053    286.000  14221.000      2.000    41.5367     0.0149    64.5176   -55.8074    -0.7692     1.4795    26.0000     4.0000     7.0000    26.0000    24.0000    10.0000     7.0000    24.0000     0.0014    -0.0024     0.0023    20.7699    41.5465     2.4714    14.4503    14.4438     0.006
     15     1.0030     1.0030     0.0500      2.002    231.000  14221.000      2.000    41.5367     0.0149    64.4277   -55.9896    -0.7692     1.4795    26.0000     4.0000     7.0000    26.0000    24.0000    10.0000     7.0000    24.0000     0.0014    -0.0024     0.0023    20.7699    41.5465     2.4788    14.4503    14.4438     0.006
     16     1.0060     1.0059     0.0502      2.001    162.000  14221.000      2.000    41.5367     0.0149    64.3374   -56.1693    -0.7692     1.4795    26.0000     4.0000     7.0000    26.0000    24.0000    10.0000     7.0000    24.0000     0.0014    -0.0024     0.0023    20.7699    41.5465     2.4861    14.4503    14.4438     0.006
     17     1.0090     1.0090     0.0501      2.012     94.000  14221.000      2.000    41.5367     0.0149    64.2476   -56.3526    -0.7692     1.4795    26.0000     4.0000     7.0000    26.0000    24.0000    10.0000     7.0000    24.0000     0.0014    -0.0024     0.0023    20.7699    41.5465     2.4936    14.4503    14.4438     0.006
     18     1.0120     1.0120     0.0500      2.021     57.000  14221.000      2.000    41.5367     0.0149    64.1572   -56.5362    -0.7692     1.4795    26.0000     4.0000     7.0000    26.0000    24.0000    10.0000     7.0000    24.0000     0.0014    -0.0024     0.0023    20.7699    41.5465     2.5010    14.4503    14.4438     0.006
     19     1.0150     1.0149     0.0502      1.976     12.000  14221.000      2.000    41.5367     0.0149    64.0667   -56.7160    -0.7692     1.4795    26.0000     4.0000     7.0000    26.0000    24.0000    10.0000     7.0000    24.0000     0.0014    -0.0024     0.0023    20.7699    41.5465     2.5083    14.4503    14.4438     0.006
     20     1.0180     1.0179     0.0502      2.017      6.000  14221.000      2.000    41.5367     0.0149    63.9763   -56.8994    -0.7692     1.4795    26.0000     4.0000     7.0000    26.0000    24.0000    10.0000     7.0000    24.0000     0.0014    -0.0024     0.0023    20.7699    41.5465     2.5158    14.4503    14.4438     0.006
     21     1.0210     1.0210     0.0499      2.021      4.000  14221.000      2.000    41.5367     0.0149    63.8855   -57.0859    -0.7692     1.4795    26.0000     4.0000     7.0000    26.0000    24.0000    10.0000     7.0000    24.0000     0.0014    -0.0024     0.0023    20.7699    41.5465     2.5233    14.4503    14.4438     0.006
     22     1.0241     1.0240     0.0497      2.003      4.000  14221.000      2.000    41.5367     0.0149    63.7949   -57.2715    -0.7692     1.4795    26.0000     4.0000     7.0000    26.0000    24.0000    10.0000     7.0000    24.0000     0.0014    -0.0024     0.0023    20.7699    41.5465     2.5308    14.4503    14.4438     0.006
     23     1.0271     1.0270     0.0497      2.024      3.000  14221.000      2.000    41.5367     0.0149    63.7040   -57.4550    -0.7692     1.4795    26.0000     4.0000     7.0000    26.0000    24.0000    10.0000     7.0000    24.0000     0.0014    -0.0024     0.0023    20.7699    41.5465     2.5383    14.4503    14.4438     0.006
     24     1.0300     1.0300     0.0499      2.010      6.000  14221.000      2.000    41.5367     0.0149    63.6129   -57.6362    -0.7692     1.4795    26.0000     4.0000     7.0000    26.0000    24.0000    10.0000     7.0000    24.0000     0.0014    -0.0024     0.0023    20.7699    41.5465     2.5456    14.4503    14.4438     0.006
     25     1.0330     1.0330     0.0501      2.014      5.000  14221.000      2.000    41.5367     0.0149    63.5214   -57.8187    -0.7692     1.4795    26.0000     4.0000     7.0000    26.0000    24.0000    10.0000     7.0000    24.0000     0.0014    -0.0024     0.0023    20.7699    41.5465     2.5529    14.4503    14.4438     0.006
     26     1.0360     1.0360     0.0502      1.986      3.000  14221.000      2.000    41.5367     0.0149    63.4305   -58.0017    -0.7692     1.4795    26.0000     4.0000     7.0000    26.0000    24.0000    10.0000     7.0000    24.0000     0.0014    -0.0024     0.0023    20.7699    41.5465     2.5603    14.4503    14.4438     0.006
     27     1.0390     1.0390     0.0499      2.032      7.000  14221.000      2.000    41.5367     0.0149    63.3398   -58.1874    -0.7692     1.4795    26.0000     4.0000     7.0000    26.0000    24.0000    10.0000     7.0000    24.0000     0.0014    -0.0024     0.0023    20.7699    41.5465     2.5678    14.4503    14.4438     0.006
# Sum of Counts = 1363
# Center of Mass = 1.000913+/-0.038342
# Full Width Half-Maximum = 0.016851+/-0.013834
# 3:24:13 AM  5/29/2023   scan completed.
