# scan = 663
# date = 5/29/2023
# time = 2:00:22 AM
# proposal = 9879
# experiment = HB-1A  - Backend upgrade commissioning
# experiment_number = 978
# command = scan h 0.961 1.039 0.003 k 0.961 1.039 0.003 l -0.07
# builtin_command = scan h 0.961 1.039 0.003 k 0.961 1.039 0.003 l -0.07
# users = Feng Ye, John Carruth, Adam Aczel, Songxue Chi, Jaime Fernandez-Baca, Masaaki Matsuda, Tao Hong, Travis Williams, Wei Tian, Michael Cox
# local_contact = Wei Tian, Adam Aczel
# scan_title = La2Ni7, ( 0.999916 0.99988 -0.002084 ), 40'-20'-S-20'-20' colli
# monochromator = PG002
# analyzer = Pg002
# sense = +-+
# collimation = 40-40-40-80
# samplename = Si powdre, Si crystal, FeGa alloy, La2Ni7 crystal, Ba2.8Sr0.2CoSn2O9 crystal
# sampletype = crystal
# samplemosaic = 30.000000
# latticeconstants = 5.084792,5.084792,24.669626,90.000000,90.000000,120.000000
# ubmatrix = -0.007838,-0.010887,0.040486,-0.193443,-0.199303,-0.001943,0.118692,-0.108301,-0.000494
# mode = 0
# plane_normal = 0.013424,0.025807,0.999577
# ubconf = UB27May2023_80143PM.ini
# preset_type = normal 
# preset_channel = mcu
# preset_value = 2.000000
# def_x = h
# def_y = detector
# col_headers = 
#   Pt.          h          k          l       time   detector    monitor        mcu         m2   rad_coll         s1         s2        sgl        sgu   slitb_bt   slitb_lf   slitb_rt   slitb_tp   slita_bt   slita_lf   slita_rt   slita_tp        stl        stu         sz         a1         a2          q         ei         ef          e
      1     0.9610     0.9610    -0.0700      1.981      4.000  14221.000      2.000    41.5367     0.0149    66.4189   -53.4540    -0.7692     1.4795    26.0000     4.0000     7.0000    26.0000    24.0000    10.0000     7.0000    24.0000     0.0014    -0.0025     0.0023    20.7701    41.5465     2.3751    14.4503    14.4438     0.006
      2     0.9640     0.9639    -0.0698      2.027      3.000  14221.000      2.000    41.5367     0.0149    66.3277   -53.6315    -0.7692     1.4795    26.0000     4.0000     7.0000    26.0000    24.0000    10.0000     7.0000    24.0000     0.0014    -0.0024     0.0023    20.7700    41.5465     2.3824    14.4503    14.4438     0.006
      3     0.9670     0.9670    -0.0702      2.013      4.000  14221.000      2.000    41.5367     0.0149    66.2368   -53.8157    -0.7692     1.4795    26.0000     4.0000     7.0000    26.0000    24.0000    10.0000     7.0000    24.0000     0.0014    -0.0024     0.0023    20.7700    41.5465     2.3899    14.4503    14.4438     0.006
      4     0.9700     0.9700    -0.0701      2.005      8.000  14221.000      2.000    41.5367     0.0149    66.1451   -53.9962    -0.7692     1.4795    26.0000     4.0000     7.0000    26.0000    24.0000    10.0000     7.0000    24.0000     0.0014    -0.0024     0.0023    20.7700    41.5465     2.3973    14.4503    14.4438     0.006
      5     0.9731     0.9730    -0.0701      2.024      6.000  14221.000      2.000    41.5367     0.0149    66.0532   -54.1776    -0.7692     1.4795    26.0000     4.0000     7.0000    26.0000    24.0000    10.0000     7.0000    24.0000     0.0014    -0.0024     0.0023    20.7700    41.5465     2.4048    14.4503    14.4438     0.006
      6     0.9760     0.9760    -0.0700      2.012      9.000  14221.000      2.000    41.5367     0.0149    65.9620   -54.3559    -0.7692     1.4795    26.0000     4.0000     7.0000    26.0000    24.0000    10.0000     7.0000    24.0000     0.0014    -0.0024     0.0023    20.7700    41.5465     2.4121    14.4503    14.4438     0.006
      7     0.9790     0.9789    -0.0697      1.989     13.000  14221.000      2.000    41.5367     0.0149    65.8701   -54.5336    -0.7692     1.4795    26.0000     4.0000     7.0000    26.0000    24.0000    10.0000     7.0000    24.0000     0.0014    -0.0024     0.0023    20.7700    41.5465     2.4194    14.4503    14.4438     0.006
      8     0.9820     0.9820    -0.0699      1.986     11.000  14221.000      2.000    41.5367     0.0149    65.7784   -54.7164    -0.7692     1.4795    26.0000     4.0000     7.0000    26.0000    24.0000    10.0000     7.0000    24.0000     0.0014    -0.0024     0.0023    20.7700    41.5465     2.4269    14.4503    14.4437     0.006
      9     0.9850     0.9850    -0.0700      2.015      6.000  14221.000      2.000    41.5367     0.0149    65.6872   -54.8978    -0.7692     1.4795    26.0000     4.0000     7.0000    26.0000    24.0000    10.0000     7.0000    24.0000     0.0014    -0.0024     0.0023    20.7700    41.5465     2.4343    14.4503    14.4438     0.006
     10     0.9880     0.9880    -0.0700      1.997     17.000  14221.000      2.000    41.5367     0.0149    65.5937   -55.0820    -0.7692     1.4795    26.0000     4.0000     7.0000    26.0000    24.0000    10.0000     7.0000    24.0000     0.0014    -0.0024     0.0023    20.7699    41.5465     2.4418    14.4503    14.4438     0.006
     11     0.9910     0.9910    -0.0700      2.017     30.000  14221.000      2.000    41.5367     0.0149    65.5025   -55.2623    -0.7692     1.4795    26.0000     4.0000     7.0000    26.0000    24.0000    10.0000     7.0000    24.0000     0.0014    -0.0024     0.0023    20.7699    41.5465     2.4492    14.4503    14.4438     0.006
     12     0.9941     0.9940    -0.0702      1.997     59.000  14221.000      2.000    41.5367     0.0149    65.4101   -55.4470    -0.7692     1.4795    26.0000     4.0000     7.0000    26.0000    24.0000    10.0000     7.0000    24.0000     0.0014    -0.0024     0.0023    20.7699    41.5465     2.4567    14.4503    14.4438     0.006
     13     0.9970     0.9970    -0.0701      2.019     79.000  14221.000      2.000    41.5367     0.0149    65.3179   -55.6274    -0.7692     1.4795    26.0000     4.0000     7.0000    26.0000    24.0000    10.0000     7.0000    24.0000     0.0014    -0.0024     0.0023    20.7699    41.5465     2.4641    14.4503    14.4438     0.006
     14     1.0001     1.0000    -0.0703      2.001     81.000  14221.000      2.000    41.5367     0.0149    65.2267   -55.8103    -0.7691     1.4795    26.0000     4.0000     7.0000    26.0000    24.0000    10.0000     7.0000    24.0000     0.0014    -0.0024     0.0023    20.7699    41.5465     2.4715    14.4503    14.4438     0.006
     15     1.0030     1.0030    -0.0701      2.024     48.000  14221.000      2.000    41.5367     0.0149    65.1340   -55.9908    -0.7692     1.4795    26.0000     4.0000     7.0000    26.0000    24.0000    10.0000     7.0000    24.0000     0.0014    -0.0024     0.0023    20.7699    41.5465     2.4789    14.4503    14.4438     0.006
     16     1.0060     1.0059    -0.0698      2.018     48.000  14221.000      2.000    41.5367     0.0149    65.0416   -56.1701    -0.7692     1.4795    26.0000     4.0000     7.0000    26.0000    24.0000    10.0000     7.0000    24.0000     0.0014    -0.0024     0.0023    20.7699    41.5465     2.4862    14.4503    14.4438     0.006
     17     1.0090     1.0090    -0.0699      1.990     18.000  14221.000      2.000    41.5367     0.0149    64.9495   -56.3529    -0.7692     1.4795    26.0000     4.0000     7.0000    26.0000    24.0000    10.0000     7.0000    24.0000     0.0014    -0.0024     0.0023    20.7699    41.5465     2.4936    14.4503    14.4438     0.006
     18     1.0120     1.0120    -0.0701      1.973     10.000  14221.000      2.000    41.5367     0.0149    64.8574   -56.5366    -0.7692     1.4795    26.0000     4.0000     7.0000    26.0000    24.0000    10.0000     7.0000    24.0000     0.0014    -0.0024     0.0023    20.7699    41.5465     2.5011    14.4503    14.4438     0.006
     19     1.0150     1.0149    -0.0697      1.984      5.000  14221.000      2.000    41.5367     0.0149    64.7641   -56.7167    -0.7691     1.4795    26.0000     4.0000     7.0000    26.0000    24.0000    10.0000     7.0000    24.0000     0.0014    -0.0024     0.0023    20.7699    41.5465     2.5084    14.4503    14.4438     0.006
     20     1.0180     1.0179    -0.0699      1.973      4.000  14221.000      2.000    41.5367     0.0149    64.6722   -56.9008    -0.7692     1.4795    26.0000     4.0000     7.0000    26.0000    24.0000    10.0000     7.0000    24.0000     0.0014    -0.0024     0.0023    20.7699    41.5465     2.5158    14.4503    14.4437     0.006
     21     1.0210     1.0210    -0.0701      2.017      3.000  14221.000      2.000    41.5367     0.0149    64.5784   -57.0877    -0.7692     1.4795    26.0000     4.0000     7.0000    26.0000    24.0000    10.0000     7.0000    24.0000     0.0014    -0.0024     0.0024    20.7699    41.5465     2.5234    14.4503    14.4438     0.006
     22     1.0241     1.0240    -0.0702      1.995      4.000  14221.000      2.000    41.5367     0.0149    64.4863   -57.2715    -0.7692     1.4795    26.0000     4.0000     7.0000    26.0000    24.0000    10.0000     7.0000    24.0000     0.0014    -0.0024     0.0023    20.7699    41.5465     2.5308    14.4503    14.4438     0.006
     23     1.0271     1.0270    -0.0702      2.008      2.000  14221.000      2.000    41.5367     0.0149    64.3927   -57.4557    -0.7692     1.4795    26.0000     4.0000     7.0000    26.0000    24.0000    10.0000     7.0000    24.0000     0.0014    -0.0024     0.0023    20.7699    41.5465     2.5383    14.4503    14.4438     0.006
     24     1.0300     1.0300    -0.0701      2.000      6.000  14221.000      2.000    41.5367     0.0149    64.3005   -57.6368    -0.7692     1.4795    26.0000     4.0000     7.0000    26.0000    24.0000    10.0000     7.0000    24.0000     0.0014    -0.0024     0.0023    20.7699    41.5465     2.5456    14.4503    14.4438     0.006
     25     1.0330     1.0330    -0.0700      2.043      1.000  14221.000      2.000    41.5367     0.0149    64.2076   -57.8198    -0.7692     1.4795    26.0000     4.0000     7.0000    26.0000    24.0000    10.0000     7.0000    24.0000     0.0014    -0.0024     0.0023    20.7699    41.5465     2.5530    14.4503    14.4438     0.006
     26     1.0360     1.0360    -0.0698      2.023      2.000  14221.000      2.000    41.5367     0.0149    64.1144   -58.0019    -0.7692     1.4795    26.0000     4.0000     7.0000    26.0000    24.0000    10.0000     7.0000    24.0000     0.0014    -0.0024     0.0023    20.7699    41.5465     2.5603    14.4503    14.4438     0.006
     27     1.0390     1.0390    -0.0701      2.004      2.000  14221.000      2.000    41.5367     0.0149    64.0215   -58.1881    -0.7692     1.4795    26.0000     4.0000     7.0000    26.0000    24.0000    10.0000     7.0000    24.0000     0.0014    -0.0024     0.0023    20.7698    41.5465     2.5678    14.4503    14.4437     0.006
# Sum of Counts = 483
# Center of Mass = 0.997541+/-0.064193
# Full Width Half-Maximum = 0.024272+/-0.019400
# 2:06:48 AM  5/29/2023   scan completed.
