# scan = 72
# date = 5/24/2023
# time = 6:33:31 PM
# proposal = 9879
# experiment = HB-1A  - Backend upgrade commissioning
# experiment_number = 978
# command = scan h .64 .98 .01 k .64 .98 .01 l 0 e -25 preset time 1
# builtin_command = scan h .64 .98 .01 k .64 .98 .01 l 0 e -25 preset time 1
# users = Feng Ye, John Carruth, Adam Aczel, Songxue Chi, Jaime Fernandez-Baca, Masaaki Matsuda, Tao Hong, Travis Williams, Wei Tian, Michael Cox
# local_contact = Wei Tian, Adam Aczel
# scan_title = sw; L110 fr 110, 25 meV
# monochromator = PG002
# analyzer = Pg002
# sense = +-+
# collimation = 40-40-40-80
# samplename = Si powdre, Si crystal, FeGa alloy, La2Ni7 crystal, Ba2.8Sr0.2CoSn2O9 crystal
# sampletype = crystal
# samplemosaic = 30.000000
# latticeconstants = 2.890068,2.890068,2.890068,90.000000,90.000000,90.000000
# ubmatrix = 0.346005,0.001684,0.001510,0.001785,-0.345165,-0.024140,0.001389,0.024147,-0.345166
# mode = 0
# plane_normal = -0.004365,0.069766,0.997554
# ubconf = UB24May2023_50219PM.ini
# preset_type = normal
# preset_channel = time
# preset_value = 1.000000
# def_x = h
# def_y = detector
# col_headers =
#   Pt.          h          k          l          e       time   detector    monitor        mcu         m2   rad_coll         s1         s2        sgl        sgu   slitb_bt   slitb_lf   slitb_rt   slitb_tp   slita_bt   slita_lf   slita_rt   slita_tp        stl        stu         sz         a1         a2          q         ei         ef
      1     0.6388     0.6395    -0.0000   -24.9488      1.000      0.000      0.000      0.000    41.5367     0.0149    96.7515   -16.1077     0.2501     4.0012    30.0000    15.0000    15.0000    30.0000    28.0000    15.0000    15.0000    28.0000     0.0009    -0.0023     0.0017    12.3945    24.8011     1.9651    14.4503    39.399
      2     0.6488     0.6495    -0.0000   -24.9488      1.000      0.000      0.000      0.000    41.5367     0.0149    94.5983   -17.1674     0.2501     4.0012    30.0000    15.0000    15.0000    30.0000    28.0000    15.0000    15.0000    28.0000     0.0008    -0.0023     0.0017    12.3940    24.8011     1.9959    14.4503    39.399
      3     0.6588     0.6595    -0.0000   -24.9488      1.000      0.000      0.000      0.000    41.5367     0.0149    92.5826   -18.1815     0.2501     4.0012    30.0000    15.0000    15.0000    30.0000    28.0000    15.0000    15.0000    28.0000     0.0009    -0.0023     0.0017    12.3939    24.8011     2.0266    14.4503    39.399
      4     0.6688     0.6695    -0.0000   -24.9487      1.000      0.000      0.000      0.000    41.5367     0.0149    90.6856   -19.1549     0.2501     4.0012    30.0000    15.0000    15.0000    30.0000    28.0000    15.0000    15.0000    28.0000     0.0009    -0.0023     0.0017    12.3937    24.8011     2.0573    14.4503    39.399
      5     0.6787     0.6796    -0.0000   -24.9487      1.000      0.000      0.000      0.000    41.5367     0.0149    88.8888   -20.1048     0.2501     4.0012    30.0000    15.0000    15.0000    30.0000    28.0000    15.0000    15.0000    28.0000     0.0009    -0.0023     0.0017    12.3936    24.8011     2.0882    14.4503    39.399
      6     0.6888     0.6896    -0.0000   -24.9488      1.000      0.000      0.000      0.000    41.5367     0.0149    87.1838   -21.0202     0.2501     4.0012    30.0000    15.0000    15.0000    30.0000    28.0000    15.0000    15.0000    28.0000     0.0009    -0.0023     0.0017    12.3936    24.8011     2.1190    14.4503    39.399
      7     0.6987     0.6996    -0.0000   -24.9485      1.000      0.000      0.000      0.000    41.5367     0.0149    85.5596   -21.9108     0.2501     4.0012    30.0000    15.0000    15.0000    30.0000    28.0000    15.0000    15.0000    28.0000     0.0009    -0.0023     0.0017    12.3935    24.8012     2.1496    14.4503    39.398
      8     0.7087     0.7097    -0.0000   -24.9485      1.000      0.000      0.000      0.000    41.5367     0.0149    84.0028   -22.7852     0.2501     4.0012    30.0000    15.0000    15.0000    30.0000    28.0000    15.0000    15.0000    28.0000     0.0009    -0.0023     0.0017    12.3934    24.8012     2.1805    14.4503    39.398
      9     0.7187     0.7197    -0.0000   -24.9485      1.000      0.000      0.000      0.000    41.5367     0.0149    82.5123   -23.6381     0.2501     4.0012    30.0000    15.0000    15.0000    30.0000    28.0000    15.0000    15.0000    28.0000     0.0009    -0.0023     0.0017    12.3934    24.8012     2.2113    14.4503    39.398
     10     0.7287     0.7297    -0.0000   -24.9484      1.000      0.000      0.000      0.000    41.5367     0.0149    81.0794   -24.4731     0.2501     4.0012    30.0000    15.0000    15.0000    30.0000    28.0000    15.0000    15.0000    28.0000     0.0009    -0.0023     0.0018    12.3934    24.8012     2.2420    14.4503    39.398
     11     0.7387     0.7398    -0.0000   -24.9485      1.000      0.000      0.000      0.000    41.5367     0.0149    79.6994   -25.2970     0.2501     4.0012    30.0000    15.0000    15.0000    30.0000    28.0000    15.0000    15.0000    28.0000     0.0009    -0.0023     0.0018    12.3934    24.8012     2.2729    14.4503    39.398
     12     0.7487     0.7496    -0.0000   -24.9484      1.000      0.000      0.000      0.000    41.5367     0.0149    78.3656   -26.0999     0.2501     4.0012    30.0000    15.0000    15.0000    30.0000    28.0000    15.0000    15.0000    28.0000     0.0009    -0.0023     0.0017    12.3933    24.8012     2.3034    14.4503    39.398
     13     0.7587     0.7596    -0.0000   -24.9485      1.000      0.000      0.000      0.000    41.5367     0.0149    77.0779   -26.8952     0.2501     4.0012    30.0000    15.0000    15.0000    30.0000    28.0000    15.0000    15.0000    28.0000     0.0009    -0.0023     0.0017    12.3933    24.8012     2.3342    14.4503    39.398
     14     0.7687     0.7697    -0.0000   -24.9484      1.000      0.000      0.000      0.000    41.5367     0.0149    75.8312   -27.6804     0.2501     4.0012    30.0000    15.0000    15.0000    30.0000    28.0000    15.0000    15.0000    28.0000     0.0009    -0.0023     0.0017    12.3933    24.8012     2.3650    14.4503    39.398
     15     0.7787     0.7797    -0.0000   -24.9486      1.000      0.000      0.000      0.000    41.5367     0.0149    74.6204   -28.4537     0.2501     4.0012    30.0000    15.0000    15.0000    30.0000    28.0000    15.0000    15.0000    28.0000     0.0009    -0.0023     0.0017    12.3933    24.8012     2.3957    14.4503    39.398
     16     0.7887     0.7897    -0.0000   -24.9486      1.000      0.000      0.000      0.000    41.5367     0.0149    73.4454   -29.2197     0.2501     4.0012    30.0000    15.0000    15.0000    30.0000    28.0000    15.0000    15.0000    28.0000     0.0009    -0.0023     0.0017    12.3932    24.8012     2.4265    14.4503    39.398
     17     0.7987     0.7997    -0.0000   -24.9486      1.000      0.000      0.000      0.000    41.5367     0.0149    72.3025   -29.9771     0.2501     4.0012    30.0000    15.0000    15.0000    30.0000    28.0000    15.0000    15.0000    28.0000     0.0009    -0.0023     0.0017    12.3932    24.8012     2.4573    14.4503    39.398
     18     0.8087     0.8097    -0.0000   -24.9486      1.000      0.000      0.000      0.000    41.5367     0.0149    71.1912   -30.7257     0.2501     4.0012    30.0000    15.0000    15.0000    30.0000    28.0000    15.0000    15.0000    28.0000     0.0008    -0.0023     0.0017    12.3932    24.8012     2.4880    14.4503    39.398
     19     0.8187     0.8197    -0.0000   -24.9486      1.000      0.000      0.000      0.000    41.5367     0.0149    70.1077   -31.4675     0.2501     4.0012    30.0000    15.0000    15.0000    30.0000    28.0000    15.0000    15.0000    28.0000     0.0009    -0.0023     0.0017    12.3932    24.8011     2.5188    14.4503    39.398
     20     0.8287     0.8297    -0.0000   -24.9486      1.000      0.000      0.000      0.000    41.5367     0.0149    69.0513   -32.2021     0.2501     4.0012    30.0000    15.0000    15.0000    30.0000    28.0000    15.0000    15.0000    28.0000     0.0009    -0.0023     0.0017    12.3932    24.8011     2.5495    14.4503    39.398
     21     0.8387     0.8398    -0.0000   -24.9485      1.000      0.000      0.000      0.000    41.5367     0.0149    68.0188   -32.9328     0.2501     4.0012    30.0000    15.0000    15.0000    30.0000    28.0000    15.0000    15.0000    28.0000     0.0009    -0.0023     0.0017    12.3931    24.8012     2.5803    14.4503    39.398
     22     0.8487     0.8498    -0.0000   -24.9485      1.000      0.000      0.000      0.000    41.5367     0.0149    67.0106   -33.6557     0.2501     4.0012    30.0000    15.0000    15.0000    30.0000    28.0000    15.0000    15.0000    28.0000     0.0009    -0.0023     0.0017    12.3932    24.8012     2.6111    14.4503    39.398
     23     0.8587     0.8598    -0.0000   -24.9486      1.000      0.000      0.000      0.000    41.5367     0.0149    66.0237   -34.3755     0.2501     4.0012    30.0000    15.0000    15.0000    30.0000    28.0000    15.0000    15.0000    28.0000     0.0009    -0.0023     0.0017    12.3932    24.8011     2.6419    14.4503    39.398
     24     0.8687     0.8696    -0.0000   -24.9486      1.000      0.000      0.000      0.000    41.5367     0.0149    65.0584   -35.0838     0.2501     4.0012    30.0000    15.0000    15.0000    30.0000    28.0000    15.0000    15.0000    28.0000     0.0009    -0.0023     0.0017    12.3931    24.8012     2.6724    14.4503    39.398
     25     0.8787     0.8798    -0.0000   -24.9485      1.000      0.000      0.000      0.000    41.5367     0.0149    64.1127   -35.7986     0.2501     4.0012    30.0000    15.0000    15.0000    30.0000    28.0000    15.0000    15.0000    28.0000     0.0009    -0.0023     0.0017    12.3931    24.8012     2.7034    14.4503    39.398
     26     0.8887     0.8898    -0.0000   -24.9486      1.000      0.000      0.000      0.000    41.5367     0.0149    63.1848   -36.5020     0.2501     4.0012    30.0000    15.0000    15.0000    30.0000    28.0000    15.0000    15.0000    28.0000     0.0009    -0.0023     0.0017    12.3931    24.8011     2.7341    14.4503    39.398
     27     0.8987     0.8998    -0.0000   -24.9485      1.000      0.000      0.000      0.000    41.5367     0.0149    62.2760   -37.2036     0.2501     4.0012    30.0000    15.0000    15.0000    30.0000    28.0000    15.0000    15.0000    28.0000     0.0009    -0.0023     0.0016    12.3931    24.8012     2.7648    14.4503    39.398
     28     0.9087     0.9098    -0.0000   -24.9487      1.000      0.000      0.000      0.000    41.5367     0.0149    61.3829   -37.9018     0.2501     4.0012    30.0000    15.0000    15.0000    30.0000    28.0000    15.0000    15.0000    28.0000     0.0009    -0.0023     0.0017    12.3931    24.8011     2.7956    14.4503    39.399
     29     0.9187     0.9197    -0.0000   -24.9487      1.000      0.000      0.000      0.000    41.5367     0.0149    60.5064   -38.5946     0.2501     4.0012    30.0000    15.0000    15.0000    30.0000    28.0000    15.0000    15.0000    28.0000     0.0009    -0.0023     0.0017    12.3931    24.8011     2.8262    14.4503    39.399
     30     0.9287     0.9298    -0.0000   -24.9487      1.000      0.000      0.000      0.000    41.5367     0.0149    59.6450   -39.2889     0.2501     4.0012    30.0000    15.0000    15.0000    30.0000    28.0000    15.0000    15.0000    28.0000     0.0009    -0.0023     0.0017    12.3930    24.8011     2.8571    14.4503    39.399
     31     0.9387     0.9399    -0.0000   -24.9487      1.000      0.000      0.000      0.000    41.5367     0.0149    58.7966   -39.9786     0.2501     4.0012    30.0000    15.0000    15.0000    30.0000    28.0000    15.0000    15.0000    28.0000     0.0009    -0.0023     0.0017    12.3930    24.8011     2.8879    14.4503    39.399
     32     0.9487     0.9498    -0.0000   -24.9485      1.000      0.000      0.000      0.000    41.5367     0.0149    57.9618   -40.6626     0.2501     4.0012    30.0000    15.0000    15.0000    30.0000    28.0000    15.0000    15.0000    28.0000     0.0009    -0.0023     0.0017    12.3930    24.8012     2.9185    14.4503    39.398
     33     0.9587     0.9599    -0.0000   -24.9488      1.000      0.000      0.000      0.000    41.5367     0.0149    57.1414   -41.3505     0.2501     4.0012    30.0000    15.0000    15.0000    30.0000    28.0000    15.0000    15.0000    28.0000     0.0009    -0.0023     0.0017    12.3930    24.8011     2.9494    14.4503    39.399
     34     0.9687     0.9698    -0.0000   -24.9488      1.000      0.000      0.000      0.000    41.5367     0.0149    56.3337   -42.0300     0.2501     4.0012    30.0000    15.0000    15.0000    30.0000    28.0000    15.0000    15.0000    28.0000     0.0009    -0.0023     0.0017    12.3931    24.8011     2.9801    14.4503    39.399
     35     0.9787     0.9798    -0.0000   -24.9489      1.000      0.000      0.000      0.000    41.5367     0.0149    55.5374   -42.7102     0.2501     4.0012    30.0000    15.0000    15.0000    30.0000    28.0000    15.0000    15.0000    28.0000     0.0009    -0.0023     0.0017    12.3931    24.8011     3.0108    14.4503    39.399
# Sum of Counts = 0
# Center of Mass = NaN+/-NaN
# Full Width Half-Maximum = NaN+/-NaN
# 6:36:48 PM  5/24/2023   scan completed.
