# scan = 602
# date = 5/28/2023
# time = 3:42:44 AM
# proposal = 9879
# experiment = HB-1A  - Backend upgrade commissioning
# experiment_number = 978
# command = th2th 3 -3 0.15
# builtin_command = scan s2 @(s2)+3 @(s2)+-3 0.150000 s1 @(s1)+(3/2) @(s1)+(-3/2) 0.075000
# users = Feng Ye, John Carruth, Adam Aczel, Songxue Chi, Jaime Fernandez-Baca, Masaaki Matsuda, Tao Hong, Travis Williams, Wei Tian, Michael Cox
# local_contact = Wei Tian, Adam Aczel
# scan_title = La2Ni7, ( 1.000086 1.000048 6.997352 ), th2th, 40'-20'-S-20'-20' colli
# monochromator = PG002
# analyzer = Pg002
# sense = +-+
# collimation = 40-40-40-80
# samplename = Si powdre, Si crystal, FeGa alloy, La2Ni7 crystal, Ba2.8Sr0.2CoSn2O9 crystal
# sampletype = crystal
# samplemosaic = 30.000000
# latticeconstants = 5.084792,5.084792,24.669626,90.000000,90.000000,120.000000
# ubmatrix = -0.007838,-0.010887,0.040486,-0.193443,-0.199303,-0.001943,0.118692,-0.108301,-0.000494
# mode = 0
# plane_normal = 0.013424,0.025807,0.999577
# ubconf = UB27May2023_80143PM.ini
# preset_type = normal 
# preset_channel = mcu
# preset_value = 10.000000
# def_x = s2
# def_y = detector
# col_headers = 
#   Pt.         s2         s1       time   detector    monitor        mcu         m2   rad_coll        sgl        sgu   slitb_bt   slitb_lf   slitb_rt   slitb_tp   slita_bt   slita_lf   slita_rt   slita_tp        stl        stu         sz         a1         a2          q          h          k          l         ei         ef          e
      1   -67.4787    23.1858     10.188     21.000  71101.000     10.000    41.5367     0.0149    -0.7692     1.4795    26.0000     4.0000     7.0000    26.0000    24.0000    10.0000     7.0000    24.0000     0.0014    -0.0024     0.0024    20.7700    41.5465     2.9331     0.9627     0.9627     6.7356    14.4503    14.4438     0.006
      2   -67.6259    23.1106     10.245     18.000  71101.000     10.000    41.5367     0.0149    -0.7692     1.4795    26.0000     4.0000     7.0000    26.0000    24.0000    10.0000     7.0000    24.0000     0.0014    -0.0024     0.0024    20.7699    41.5465     2.9388     0.9645     0.9645     6.7488    14.4503    14.4438     0.006
      3   -67.7756    23.0362     10.256     14.000  71101.000     10.000    41.5367     0.0149    -0.7692     1.4795    26.0000     4.0000     7.0000    26.0000    24.0000    10.0000     7.0000    24.0000     0.0014    -0.0024     0.0024    20.7699    41.5465     2.9445     0.9664     0.9664     6.7619    14.4503    14.4438     0.006
      4   -67.9276    22.9608     10.258     11.000  71101.000     10.000    41.5367     0.0149    -0.7692     1.4795    26.0000     4.0000     7.0000    26.0000    24.0000    10.0000     7.0000    24.0000     0.0014    -0.0024     0.0024    20.7699    41.5465     2.9503     0.9683     0.9683     6.7751    14.4503    14.4438     0.006
      5   -68.0780    22.8863     10.240     10.000  71101.000     10.000    41.5367     0.0149    -0.7692     1.4795    26.0000     4.0000     7.0000    26.0000    24.0000    10.0000     7.0000    24.0000     0.0014    -0.0024     0.0024    20.7699    41.5465     2.9560     0.9702     0.9702     6.7882    14.4503    14.4438     0.006
      6   -68.2289    22.8108     10.181     10.000  71101.000     10.000    41.5367     0.0149    -0.7692     1.4795    26.0000     4.0000     7.0000    26.0000    24.0000    10.0000     7.0000    24.0000     0.0014    -0.0024     0.0023    20.7699    41.5465     2.9618     0.9721     0.9721     6.8015    14.4503    14.4438     0.006
      7   -68.3785    22.7361     10.164     18.000  71101.000     10.000    41.5367     0.0149    -0.7692     1.4795    26.0000     4.0000     7.0000    26.0000    24.0000    10.0000     7.0000    24.0000     0.0014    -0.0024     0.0024    20.7699    41.5465     2.9675     0.9740     0.9739     6.8145    14.4503    14.4438     0.006
      8   -68.5303    22.6607     10.276     13.000  71101.000     10.000    41.5367     0.0149    -0.7692     1.4795    26.0000     4.0000     7.0000    26.0000    24.0000    10.0000     7.0000    24.0000     0.0014    -0.0025     0.0024    20.7699    41.5465     2.9733     0.9759     0.9759     6.8277    14.4503    14.4437     0.006
      9   -68.6820    22.5854     10.235     14.000  71101.000     10.000    41.5367     0.0149    -0.7692     1.4795    26.0000     4.0000     7.0000    26.0000    24.0000    10.0000     7.0000    24.0000     0.0014    -0.0024     0.0024    20.7699    41.5465     2.9791     0.9778     0.9778     6.8409    14.4503    14.4438     0.006
     10   -68.8318    22.5104     10.141     10.000  71101.000     10.000    41.5367     0.0149    -0.7692     1.4795    26.0000     4.0000     7.0000    26.0000    24.0000    10.0000     7.0000    24.0000     0.0014    -0.0024     0.0024    20.7699    41.5465     2.9848     0.9797     0.9796     6.8540    14.4503    14.4437     0.006
     11   -68.9812    22.4359     10.190     16.000  71101.000     10.000    41.5367     0.0149    -0.7692     1.4795    26.0000     4.0000     7.0000    26.0000    24.0000    10.0000     7.0000    24.0000     0.0014    -0.0024     0.0024    20.7699    41.5465     2.9904     0.9815     0.9815     6.8670    14.4503    14.4437     0.006
     12   -69.1280    22.3603     10.232     13.000  71101.000     10.000    41.5367     0.0149    -0.7692     1.4795    26.0000     4.0000     7.0000    26.0000    24.0000    10.0000     7.0000    24.0000     0.0014    -0.0024     0.0024    20.7699    41.5465     2.9960     0.9833     0.9833     6.8802    14.4503    14.4438     0.006
     13   -69.2770    22.2859     10.115     17.000  71101.000     10.000    41.5367     0.0149    -0.7692     1.4795    26.0000     4.0000     7.0000    26.0000    24.0000    10.0000     7.0000    24.0000     0.0014    -0.0024     0.0024    20.7699    41.5465     3.0017     0.9852     0.9851     6.8932    14.4503    14.4438     0.006
     14   -69.4272    22.2104     10.143     14.000  71101.000     10.000    41.5367     0.0149    -0.7692     1.4795    26.0000     4.0000     7.0000    26.0000    24.0000    10.0000     7.0000    24.0000     0.0014    -0.0024     0.0024    20.7699    41.5465     3.0074     0.9870     0.9870     6.9063    14.4503    14.4438     0.006
     15   -69.5774    22.1364     10.214     10.000  71101.000     10.000    41.5367     0.0149    -0.7692     1.4795    26.0000     4.0000     7.0000    26.0000    24.0000    10.0000     7.0000    24.0000     0.0014    -0.0024     0.0024    20.7698    41.5465     3.0130     0.9889     0.9889     6.9192    14.4503    14.4438     0.006
     16   -69.7265    22.0607     10.209     12.000  71101.000     10.000    41.5367     0.0149    -0.7692     1.4795    26.0000     4.0000     7.0000    26.0000    24.0000    10.0000     7.0000    24.0000     0.0014    -0.0024     0.0024    20.7699    41.5465     3.0187     0.9908     0.9907     6.9324    14.4503    14.4438     0.006
     17   -69.8776    21.9860     10.178      5.000  71101.000     10.000    41.5367     0.0149    -0.7692     1.4795    26.0000     4.0000     7.0000    26.0000    24.0000    10.0000     7.0000    24.0000     0.0014    -0.0024     0.0024    20.7699    41.5465     3.0244     0.9926     0.9926     6.9453    14.4503    14.4437     0.006
     18   -70.0265    21.9108     10.250     10.000  71101.000     10.000    41.5367     0.0149    -0.7692     1.4795    26.0000     4.0000     7.0000    26.0000    24.0000    10.0000     7.0000    24.0000     0.0014    -0.0024     0.0024    20.7698    41.5465     3.0300     0.9945     0.9944     6.9584    14.4503    14.4438     0.006
     19   -70.1810    21.8366     10.191     17.000  71101.000     10.000    41.5367     0.0149    -0.7692     1.4795    26.0000     4.0000     7.0000    26.0000    24.0000    10.0000     7.0000    24.0000     0.0014    -0.0024     0.0024    20.7698    41.5465     3.0359     0.9964     0.9964     6.9712    14.4503    14.4437     0.006
     20   -70.3311    21.7608     10.142     15.000  71101.000     10.000    41.5367     0.0149    -0.7692     1.4795    26.0000     4.0000     7.0000    26.0000    24.0000    10.0000     7.0000    24.0000     0.0014    -0.0024     0.0024    20.7698    41.5465     3.0415     0.9983     0.9982     6.9844    14.4503    14.4437     0.006
     21   -70.4808    21.6859     10.180     26.000  71101.000     10.000    41.5367     0.0149    -0.7692     1.4795    26.0000     4.0000     7.0000    26.0000    24.0000    10.0000     7.0000    24.0000     0.0014    -0.0024     0.0024    20.7698    41.5465     3.0471     1.0001     1.0001     6.9973    14.4503    14.4437     0.006
     22   -70.6311    21.6100     10.210     31.000  71101.000     10.000    41.5367     0.0149    -0.7692     1.4795    26.0000     4.0000     7.0000    26.0000    24.0000    10.0000     7.0000    24.0000     0.0014    -0.0024     0.0024    20.7698    41.5465     3.0528     1.0020     1.0019     7.0104    14.4503    14.4438     0.006
     23   -70.7802    21.5361     10.167     53.000  71101.000     10.000    41.5367     0.0149    -0.7692     1.4795    26.0000     4.0000     7.0000    26.0000    24.0000    10.0000     7.0000    24.0000     0.0014    -0.0024     0.0024    20.7698    41.5465     3.0584     1.0038     1.0038     7.0232    14.4503    14.4438     0.006
     24   -70.9280    21.4604     10.269     38.000  71101.000     10.000    41.5367     0.0149    -0.7692     1.4795    26.0000     4.0000     7.0000    26.0000    24.0000    10.0000     7.0000    24.0000     0.0014    -0.0024     0.0024    20.7698    41.5465     3.0640     1.0056     1.0056     7.0363    14.4503    14.4438     0.006
     25   -71.0800    21.3859     10.129     31.000  71101.000     10.000    41.5367     0.0149    -0.7692     1.4795    26.0000     4.0000     7.0000    26.0000    24.0000    10.0000     7.0000    24.0000     0.0014    -0.0024     0.0024    20.7698    41.5465     3.0697     1.0075     1.0075     7.0491    14.4503    14.4438     0.006
     26   -71.2282    21.3100     10.179     38.000  71101.000     10.000    41.5367     0.0149    -0.7692     1.4795    26.0000     4.0000     7.0000    26.0000    24.0000    10.0000     7.0000    24.0000     0.0014    -0.0024     0.0024    20.7698    41.5465     3.0752     1.0093     1.0093     7.0622    14.4503    14.4438     0.006
     27   -71.3799    21.2364     10.154     33.000  71101.000     10.000    41.5367     0.0149    -0.7692     1.4795    26.0000     4.0000     7.0000    26.0000    24.0000    10.0000     7.0000    24.0000     0.0014    -0.0024     0.0024    20.7698    41.5465     3.0809     1.0112     1.0112     7.0748    14.4503    14.4438     0.006
     28   -71.5269    21.1604     10.209     31.000  71101.000     10.000    41.5367     0.0149    -0.7692     1.4795    26.0000     4.0000     7.0000    26.0000    24.0000    10.0000     7.0000    24.0000     0.0014    -0.0024     0.0024    20.7698    41.5465     3.0864     1.0130     1.0129     7.0879    14.4503    14.4437     0.006
     29   -71.6797    21.0861     10.242     54.000  71101.000     10.000    41.5367     0.0149    -0.7692     1.4795    26.0000     4.0000     7.0000    26.0000    24.0000    10.0000     7.0000    24.0000     0.0014    -0.0024     0.0024    20.7698    41.5465     3.0921     1.0149     1.0148     7.1007    14.4503    14.4438     0.006
     30   -71.8291    21.0105     10.228     35.000  71101.000     10.000    41.5367     0.0149    -0.7692     1.4795    26.0000     4.0000     7.0000    26.0000    24.0000    10.0000     7.0000    24.0000     0.0014    -0.0024     0.0024    20.7698    41.5465     3.0977     1.0167     1.0167     7.1136    14.4503    14.4437     0.006
     31   -71.9813    20.9365     10.162     33.000  71101.000     10.000    41.5367     0.0149    -0.7692     1.4795    26.0000     4.0000     7.0000    26.0000    24.0000    10.0000     7.0000    24.0000     0.0014    -0.0024     0.0024    20.7698    41.5465     3.1034     1.0186     1.0185     7.1263    14.4503    14.4437     0.006
     32   -72.1317    20.8609     10.177     28.000  71101.000     10.000    41.5367     0.0149    -0.7692     1.4795    26.0000     4.0000     7.0000    26.0000    24.0000    10.0000     7.0000    24.0000     0.0014    -0.0024     0.0024    20.7698    41.5465     3.1090     1.0204     1.0204     7.1393    14.4503    14.4438     0.006
     33   -72.2799    20.7862     10.105     21.000  71101.000     10.000    41.5367     0.0149    -0.7692     1.4795    26.0000     4.0000     7.0000    26.0000    24.0000    10.0000     7.0000    24.0000     0.0014    -0.0024     0.0024    20.7698    41.5465     3.1145     1.0222     1.0222     7.1520    14.4503    14.4437     0.006
     34   -72.4277    20.7104     10.112     18.000  71101.000     10.000    41.5367     0.0149    -0.7692     1.4795    26.0000     4.0000     7.0000    26.0000    24.0000    10.0000     7.0000    24.0000     0.0014    -0.0024     0.0024    20.7698    41.5465     3.1200     1.0240     1.0240     7.1650    14.4503    14.4438     0.006
     35   -72.5769    20.6360     10.167     14.000  71101.000     10.000    41.5367     0.0149    -0.7692     1.4795    26.0000     4.0000     7.0000    26.0000    24.0000    10.0000     7.0000    24.0000     0.0014    -0.0025     0.0024    20.7698    41.5465     3.1255     1.0258     1.0258     7.1777    14.4503    14.4438     0.006
     36   -72.7271    20.5602     10.133     11.000  71101.000     10.000    41.5367     0.0149    -0.7692     1.4795    26.0000     4.0000     7.0000    26.0000    24.0000    10.0000     7.0000    24.0000     0.0014    -0.0024     0.0024    20.7698    41.5465     3.1311     1.0276     1.0276     7.1906    14.4503    14.4438     0.006
     37   -72.8763    20.4860     10.221      9.000  71101.000     10.000    41.5367     0.0149    -0.7692     1.4795    26.0000     4.0000     7.0000    26.0000    24.0000    10.0000     7.0000    24.0000     0.0014    -0.0024     0.0024    20.7698    41.5465     3.1366     1.0295     1.0294     7.2033    14.4503    14.4438     0.006
     38   -73.0300    20.4101     10.173      9.000  71101.000     10.000    41.5367     0.0149    -0.7692     1.4795    26.0000     4.0000     7.0000    26.0000    24.0000    10.0000     7.0000    24.0000     0.0014    -0.0024     0.0024    20.7698    41.5465     3.1423     1.0314     1.0313     7.2162    14.4503    14.4438     0.006
     39   -73.1772    20.3359     10.221     15.000  71101.000     10.000    41.5367     0.0149    -0.7692     1.4795    26.0000     4.0000     7.0000    26.0000    24.0000    10.0000     7.0000    24.0000     0.0014    -0.0024     0.0024    20.7698    41.5465     3.1478     1.0331     1.0331     7.2288    14.4503    14.4438     0.006
     40   -73.3275    20.2607     10.236     12.000  71101.000     10.000    41.5367     0.0149    -0.7692     1.4795    26.0000     4.0000     7.0000    26.0000    24.0000    10.0000     7.0000    24.0000     0.0014    -0.0024     0.0024    20.7698    41.5465     3.1533     1.0350     1.0349     7.2416    14.4503    14.4438     0.006
     41   -73.4791    20.1858     10.182      8.000  71101.000     10.000    41.5367     0.0149    -0.7692     1.4795    26.0000     4.0000     7.0000    26.0000    24.0000    10.0000     7.0000    24.0000     0.0014    -0.0024     0.0024    20.7698    41.5465     3.1589     1.0368     1.0368     7.2543    14.4503    14.4437     0.006
# Sum of Counts = 816
# Center of Mass = -70.704642+/-3.500817
# Full Width Half-Maximum = 3.083252+/-1.034462
# 3:54:15 AM  5/28/2023   scan completed.
