# scan = 866
# date = 5/31/2023
# time = 6:21:54 PM
# proposal = 9879
# experiment = HB-1A  - Backend upgrade commissioning
# experiment_number = 978
# command = scan s2 -10 -120 0.2 preset mcu 60
# builtin_command = scan s2 -10 -120 0.2 preset mcu 60
# users = Feng Ye, John Carruth, Adam Aczel, Songxue Chi, Jaime Fernandez-Baca, Masaaki Matsuda, Tao Hong, Travis Williams, Wei Tian, Michael Cox
# local_contact = Wei Tian, Adam Aczel
# scan_title = Si powder, triple axis can, long s2 scan, part 1
# monochromator = PG002
# analyzer = Pg002
# sense = +-+
# collimation = 40-40-40-80
# samplename = Si powdre, Si crystal, FeGa alloy, La2Ni7 crystal, Ba2.8Sr0.2CoSn2O9 crystal
# sampletype = crystal
# samplemosaic = 30.000000
# latticeconstants = 5.419666,5.419666,5.419666,90.000000,90.000000,90.000000
# ubmatrix = 0.112527,0.102287,0.104500,-0.073949,-0.073950,0.152013,0.126152,-0.134588,-0.004105
# mode = 0
# plane_normal = 0.039245,0.000005,0.999230
# ubconf = UB29May2023_80143PM.ini
# preset_type = normal
# preset_channel = mcu
# preset_value = 60.000000
# def_x = s2
# def_y = detector
# col_headers =
#   Pt.         s2       time   detector    monitor        mcu         m2   rad_coll         s1        sgl        sgu   slitb_bt   slitb_lf   slitb_rt   slitb_tp   slita_bt   slita_lf   slita_rt   slita_tp        stl        stu         sz         a1         a2          q          h          k          l         ei         ef          e
      1    -9.9996     59.961   3456.000 444553.000     60.000    41.5367     0.0149    -9.3441     0.0002     0.0005    30.0000    10.0000    10.0000    30.0000    25.0000    10.0000    10.0000    25.0000     0.0019    -0.0024     0.0030    20.7712    41.5355     0.4603     0.2294     0.2074     0.2490    14.4503    14.4511    -0.000
      2   -10.2015     60.209   3407.000 444553.000     60.000    41.5367     0.0149    -9.3441     0.0002     0.0005    30.0000    10.0000    10.0000    30.0000    25.0000    10.0000    10.0000    25.0000     0.0019    -0.0024     0.0030    20.7708    41.5355     0.4696     0.2343     0.2119     0.2535    14.4503    14.4511    -0.000
      3   -10.3981     60.039   3356.000 444553.000     60.000    41.5367     0.0149    -9.3441     0.0002     0.0005    30.0000    10.0000    10.0000    30.0000    25.0000    10.0000    10.0000    25.0000     0.0019    -0.0024     0.0030    20.7707    41.5355     0.4786     0.2391     0.2163     0.2578    14.4503    14.4511    -0.000
      4   -10.5967     59.993   3352.000 444553.000     60.000    41.5367     0.0149    -9.3441     0.0002     0.0005    30.0000    10.0000    10.0000    30.0000    25.0000    10.0000    10.0000    25.0000     0.0019    -0.0025     0.0030    20.7706    41.5355     0.4877     0.2440     0.2207     0.2622    14.4503    14.4511    -0.000
      5   -10.7981     60.247   3289.000 444553.000     60.000    41.5367     0.0149    -9.3441     0.0002     0.0005    30.0000    10.0000    10.0000    30.0000    25.0000    10.0000    10.0000    25.0000     0.0019    -0.0024     0.0030    20.7705    41.5355     0.4970     0.2490     0.2252     0.2665    14.4503    14.4511    -0.000
      6   -10.9976     60.139   3338.000 444553.000     60.000    41.5367     0.0149    -9.3441     0.0002     0.0005    30.0000    10.0000    10.0000    30.0000    25.0000    10.0000    10.0000    25.0000     0.0019    -0.0024     0.0030    20.7704    41.5355     0.5061     0.2539     0.2297     0.2709    14.4503    14.4511    -0.000
      7   -11.1993     60.101   3177.000 444553.000     60.000    41.5367     0.0149    -9.3441     0.0002     0.0005    30.0000    10.0000    10.0000    30.0000    25.0000    10.0000    10.0000    25.0000     0.0019    -0.0025     0.0030    20.7704    41.5355     0.5154     0.2589     0.2342     0.2752    14.4503    14.4511    -0.000
      8   -11.4014     60.095   3177.000 444553.000     60.000    41.5367     0.0149    -9.3441     0.0002     0.0005    30.0000    10.0000    10.0000    30.0000    25.0000    10.0000    10.0000    25.0000     0.0019    -0.0025     0.0030    20.7703    41.5355     0.5246     0.2639     0.2388     0.2795    14.4503    14.4511    -0.000
      9   -11.6016     60.075   3149.000 444553.000     60.000    41.5367     0.0149    -9.3441     0.0002     0.0005    30.0000    10.0000    10.0000    30.0000    25.0000    10.0000    10.0000    25.0000     0.0019    -0.0024     0.0030    20.7703    41.5355     0.5338     0.2688     0.2433     0.2838    14.4503    14.4511    -0.000
     10   -11.8019     60.089   3045.000 444553.000     60.000    41.5367     0.0149    -9.3441     0.0002     0.0005    30.0000    10.0000    10.0000    30.0000    25.0000    10.0000    10.0000    25.0000     0.0019    -0.0024     0.0030    20.7703    41.5355     0.5430     0.2738     0.2479     0.2880    14.4503    14.4511    -0.000
     11   -11.9992     60.064   3003.000 444553.000     60.000    41.5367     0.0149    -9.3441     0.0002     0.0005    30.0000    10.0000    10.0000    30.0000    25.0000    10.0000    10.0000    25.0000     0.0019    -0.0024     0.0030    20.7702    41.5355     0.5520     0.2787     0.2524     0.2922    14.4503    14.4511    -0.000
     12   -12.2015     60.038   3032.000 444553.000     60.000    41.5367     0.0149    -9.3441     0.0002     0.0005    30.0000    10.0000    10.0000    30.0000    25.0000    10.0000    10.0000    25.0000     0.0020    -0.0024     0.0030    20.7702    41.5355     0.5613     0.2838     0.2570     0.2964    14.4503    14.4511    -0.000
     13   -12.4015     60.094   2854.000 444553.000     60.000    41.5367     0.0149    -9.3441     0.0002     0.0005    30.0000    10.0000    10.0000    30.0000    25.0000    10.0000    10.0000    25.0000     0.0019    -0.0024     0.0030    20.7702    41.5355     0.5705     0.2888     0.2615     0.3006    14.4503    14.4511    -0.000
     14   -12.5985     60.284   2997.000 444553.000     60.000    41.5367     0.0149    -9.3441     0.0002     0.0005    30.0000    10.0000    10.0000    30.0000    25.0000    10.0000    10.0000    25.0000     0.0019    -0.0024     0.0030    20.7702    41.5355     0.5795     0.2937     0.2660     0.3046    14.4503    14.4511    -0.000
     15   -12.8001     59.900   2962.000 444553.000     60.000    41.5367     0.0149    -9.3441     0.0002     0.0005    30.0000    10.0000    10.0000    30.0000    25.0000    10.0000    10.0000    25.0000     0.0019    -0.0024     0.0030    20.7701    41.5355     0.5887     0.2988     0.2707     0.3088    14.4503    14.4511    -0.000
     16   -13.0000     60.350   2859.000 444553.000     60.000    41.5367     0.0149    -9.3441     0.0002     0.0005    30.0000    10.0000    10.0000    30.0000    25.0000    10.0000    10.0000    25.0000     0.0019    -0.0024     0.0030    20.7701    41.5355     0.5979     0.3038     0.2753     0.3129    14.4503    14.4511    -0.000
     17   -13.2030     60.246   2783.000 444553.000     60.000    41.5367     0.0149    -9.3441     0.0002     0.0005    30.0000    10.0000    10.0000    30.0000    25.0000    10.0000    10.0000    25.0000     0.0019    -0.0024     0.0029    20.7700    41.5355     0.6072     0.3090     0.2799     0.3170    14.4503    14.4511    -0.000
     18   -13.3967     60.056   2825.000 444553.000     60.000    41.5367     0.0149    -9.3441     0.0002     0.0005    30.0000    10.0000    10.0000    30.0000    25.0000    10.0000    10.0000    25.0000     0.0019    -0.0024     0.0030    20.7700    41.5355     0.6161     0.3139     0.2844     0.3209    14.4503    14.4511    -0.000
     19   -13.5999     60.121   2710.000 444553.000     60.000    41.5367     0.0149    -9.3441     0.0002     0.0005    30.0000    10.0000    10.0000    30.0000    25.0000    10.0000    10.0000    25.0000     0.0019    -0.0024     0.0030    20.7700    41.5355     0.6254     0.3190     0.2891     0.3250    14.4503    14.4511    -0.000
     20   -13.8005     60.207   2762.000 444553.000     60.000    41.5367     0.0149    -9.3441     0.0002     0.0005    30.0000    10.0000    10.0000    30.0000    25.0000    10.0000    10.0000    25.0000     0.0019    -0.0024     0.0030    20.7700    41.5354     0.6345     0.3241     0.2938     0.3290    14.4503    14.4511    -0.000
     21   -13.9983     60.089   2733.000 444553.000     60.000    41.5367     0.0149    -9.3441     0.0002     0.0005    30.0000    10.0000    10.0000    30.0000    25.0000    10.0000    10.0000    25.0000     0.0019    -0.0024     0.0030    20.7700    41.5355     0.6436     0.3291     0.2984     0.3329    14.4503    14.4511    -0.000
     22   -14.2013     60.152   2638.000 444553.000     60.000    41.5367     0.0149    -9.3441     0.0002     0.0005    30.0000    10.0000    10.0000    30.0000    25.0000    10.0000    10.0000    25.0000     0.0019    -0.0024     0.0030    20.7700    41.5354     0.6529     0.3343     0.3031     0.3369    14.4503    14.4511    -0.000
     23   -14.3984     60.232   2737.000 444553.000     60.000    41.5367     0.0149    -9.3441     0.0002     0.0005    30.0000    10.0000    10.0000    30.0000    25.0000    10.0000    10.0000    25.0000     0.0019    -0.0024     0.0030    20.7700    41.5354     0.6619     0.3393     0.3077     0.3408    14.4503    14.4511    -0.000
     24   -14.5991     60.038   2694.000 444553.000     60.000    41.5367     0.0149    -9.3441     0.0002     0.0005    30.0000    10.0000    10.0000    30.0000    25.0000    10.0000    10.0000    25.0000     0.0019    -0.0024     0.0030    20.7699    41.5355     0.6711     0.3445     0.3124     0.3447    14.4503    14.4511    -0.000
     25   -14.7968     59.936   2581.000 444553.000     60.000    41.5367     0.0149    -9.3441     0.0002     0.0005    30.0000    10.0000    10.0000    30.0000    25.0000    10.0000    10.0000    25.0000     0.0020    -0.0024     0.0029    20.7699    41.5355     0.6801     0.3495     0.3170     0.3485    14.4503    14.4511    -0.000
     26   -15.0031     60.202   2531.000 444553.000     60.000    41.5367     0.0149    -9.3441     0.0002     0.0005    30.0000    10.0000    10.0000    30.0000    25.0000    10.0000    10.0000    25.0000     0.0019    -0.0024     0.0030    20.7699    41.5355     0.6895     0.3548     0.3219     0.3525    14.4503    14.4511    -0.000
     27   -15.1975     60.205   2548.000 444553.000     60.000    41.5367     0.0149    -9.3441     0.0002     0.0005    30.0000    10.0000    10.0000    30.0000    25.0000    10.0000    10.0000    25.0000     0.0020    -0.0024     0.0030    20.7699    41.5355     0.6984     0.3598     0.3264     0.3562    14.4503    14.4511    -0.000
     28   -15.3988     60.190   2573.000 444553.000     60.000    41.5367     0.0149    -9.3441     0.0002     0.0005    30.0000    10.0000    10.0000    30.0000    25.0000    10.0000    10.0000    25.0000     0.0019    -0.0024     0.0030    20.7699    41.5355     0.7076     0.3650     0.3312     0.3600    14.4503    14.4511    -0.000
     29   -15.5981     60.268   2586.000 444553.000     60.000    41.5367     0.0149    -9.3441     0.0002     0.0005    30.0000    10.0000    10.0000    30.0000    25.0000    10.0000    10.0000    25.0000     0.0019    -0.0024     0.0030    20.7699    41.5355     0.7167     0.3702     0.3359     0.3638    14.4503    14.4511    -0.000
     30   -15.7979     59.966   2614.000 444553.000     60.000    41.5367     0.0149    -9.3441     0.0002     0.0005    30.0000    10.0000    10.0000    30.0000    25.0000    10.0000    10.0000    25.0000     0.0019    -0.0024     0.0030    20.7699    41.5355     0.7258     0.3753     0.3406     0.3675    14.4503    14.4511    -0.000
     31   -16.0001     60.296   2466.000 444553.000     60.000    41.5367     0.0149    -9.3441     0.0002     0.0005    30.0000    10.0000    10.0000    30.0000    25.0000    10.0000    10.0000    25.0000     0.0019    -0.0024     0.0030    20.7699    41.5355     0.7351     0.3806     0.3454     0.3713    14.4503    14.4511    -0.000
     32   -16.1963     60.282   2421.000 444553.000     60.000    41.5367     0.0149    -9.3441     0.0002     0.0005    30.0000    10.0000    10.0000    30.0000    25.0000    10.0000    10.0000    25.0000     0.0019    -0.0024     0.0030    20.7699    41.5355     0.7440     0.3857     0.3501     0.3749    14.4503    14.4511    -0.000
     33   -16.3972     60.140   2482.000 444553.000     60.000    41.5367     0.0149    -9.3441     0.0002     0.0005    30.0000    10.0000    10.0000    30.0000    25.0000    10.0000    10.0000    25.0000     0.0019    -0.0024     0.0030    20.7699    41.5355     0.7532     0.3909     0.3548     0.3786    14.4503    14.4511    -0.000
     34   -16.6024     60.216   2399.000 444553.000     60.000    41.5367     0.0149    -9.3441     0.0002     0.0005    30.0000    10.0000    10.0000    30.0000    25.0000    10.0000    10.0000    25.0000     0.0019    -0.0024     0.0030    20.7698    41.5355     0.7625     0.3962     0.3597     0.3824    14.4503    14.4511    -0.000
     35   -16.7961     59.951   2478.000 444553.000     60.000    41.5367     0.0149    -9.3441     0.0002     0.0005    30.0000    10.0000    10.0000    30.0000    25.0000    10.0000    10.0000    25.0000     0.0020    -0.0024     0.0030    20.7698    41.5355     0.7714     0.4013     0.3644     0.3859    14.4503    14.4511    -0.000
     36   -17.0002     60.269   2443.000 444553.000     60.000    41.5367     0.0149    -9.3441     0.0002     0.0005    30.0000    10.0000    10.0000    30.0000    25.0000    10.0000    10.0000    25.0000     0.0019    -0.0024     0.0030    20.7698    41.5355     0.7807     0.4066     0.3693     0.3896    14.4503    14.4511    -0.000
     37   -17.2020     60.256   2424.000 444553.000     60.000    41.5367     0.0149    -9.3441     0.0002     0.0005    30.0000    10.0000    10.0000    30.0000    25.0000    10.0000    10.0000    25.0000     0.0020    -0.0024     0.0030    20.7698    41.5355     0.7899     0.4119     0.3741     0.3932    14.4503    14.4511    -0.000
     38   -17.3993     60.083   2291.000 444553.000     60.000    41.5367     0.0149    -9.3441     0.0002     0.0005    30.0000    10.0000    10.0000    30.0000    25.0000    10.0000    10.0000    25.0000     0.0019    -0.0024     0.0029    20.7698    41.5355     0.7989     0.4171     0.3788     0.3967    14.4503    14.4511    -0.000
     39   -17.5970     60.098   2328.000 444553.000     60.000    41.5367     0.0149    -9.3441     0.0002     0.0005    30.0000    10.0000    10.0000    30.0000    25.0000    10.0000    10.0000    25.0000     0.0020    -0.0024     0.0030    20.7698    41.5355     0.8079     0.4223     0.3836     0.4002    14.4503    14.4511    -0.000
     40   -17.8016     60.231   2321.000 444553.000     60.000    41.5367     0.0149    -9.3441     0.0002     0.0005    30.0000    10.0000    10.0000    30.0000    25.0000    10.0000    10.0000    25.0000     0.0020    -0.0024     0.0029    20.7698    41.5355     0.8172     0.4277     0.3885     0.4037    14.4503    14.4511    -0.000
     41   -18.0028     60.298   2230.000 444553.000     60.000    41.5367     0.0149    -9.3441     0.0002     0.0005    30.0000    10.0000    10.0000    30.0000    25.0000    10.0000    10.0000    25.0000     0.0019    -0.0024     0.0030    20.7698    41.5355     0.8264     0.4330     0.3934     0.4072    14.4503    14.4511    -0.000
     42   -18.2034     60.058   2257.000 444553.000     60.000    41.5367     0.0149    -9.3441     0.0002     0.0005    30.0000    10.0000    10.0000    30.0000    25.0000    10.0000    10.0000    25.0000     0.0020    -0.0024     0.0030    20.7698    41.5355     0.8355     0.4383     0.3983     0.4107    14.4503    14.4511    -0.000
     43   -18.4012     60.268   2296.000 444553.000     60.000    41.5367     0.0149    -9.3441     0.0002     0.0005    30.0000    10.0000    10.0000    30.0000    25.0000    10.0000    10.0000    25.0000     0.0019    -0.0024     0.0030    20.7698    41.5355     0.8445     0.4435     0.4030     0.4141    14.4503    14.4511    -0.000
     44   -18.5975     60.265   2325.000 444553.000     60.000    41.5367     0.0149    -9.3441     0.0002     0.0005    30.0000    10.0000    10.0000    30.0000    25.0000    10.0000    10.0000    25.0000     0.0019    -0.0024     0.0030    20.7698    41.5355     0.8534     0.4487     0.4078     0.4174    14.4503    14.4511    -0.000
     45   -18.7991     60.038   2405.000 444553.000     60.000    41.5367     0.0149    -9.3441     0.0002     0.0005    30.0000    10.0000    10.0000    30.0000    25.0000    10.0000    10.0000    25.0000     0.0019    -0.0024     0.0029    20.7698    41.5355     0.8626     0.4540     0.4127     0.4208    14.4503    14.4511    -0.000
     46   -18.9993     60.185   2199.000 444553.000     60.000    41.5367     0.0149    -9.3441     0.0002     0.0005    30.0000    10.0000    10.0000    30.0000    25.0000    10.0000    10.0000    25.0000     0.0019    -0.0024     0.0029    20.7698    41.5355     0.8717     0.4593     0.4176     0.4242    14.4503    14.4511    -0.000
     47   -19.1991     60.175   2316.000 444553.000     60.000    41.5367     0.0149    -9.3441     0.0002     0.0005    30.0000    10.0000    10.0000    30.0000    25.0000    10.0000    10.0000    25.0000     0.0019    -0.0024     0.0030    20.7698    41.5355     0.8808     0.4647     0.4225     0.4275    14.4503    14.4511    -0.000
     48   -19.4002     60.125   2166.000 444553.000     60.000    41.5367     0.0149    -9.3441     0.0002     0.0005    30.0000    10.0000    10.0000    30.0000    25.0000    10.0000    10.0000    25.0000     0.0019    -0.0024     0.0030    20.7697    41.5355     0.8899     0.4700     0.4274     0.4308    14.4503    14.4511    -0.000
     49   -19.6013     60.174   2274.000 444553.000     60.000    41.5367     0.0149    -9.3441     0.0002     0.0005    30.0000    10.0000    10.0000    30.0000    25.0000    10.0000    10.0000    25.0000     0.0019    -0.0024     0.0030    20.7698    41.5355     0.8990     0.4754     0.4323     0.4341    14.4503    14.4511    -0.000
     50   -19.8028     60.375   2275.000 444553.000     60.000    41.5367     0.0149    -9.3441     0.0002     0.0005    30.0000    10.0000    10.0000    30.0000    25.0000    10.0000    10.0000    25.0000     0.0020    -0.0024     0.0030    20.7697    41.5355     0.9082     0.4808     0.4373     0.4374    14.4503    14.4511    -0.000
     51   -19.9994     60.132   2235.000 444553.000     60.000    41.5367     0.0149    -9.3441     0.0002     0.0005    30.0000    10.0000    10.0000    30.0000    25.0000    10.0000    10.0000    25.0000     0.0020    -0.0024     0.0030    20.7697    41.5355     0.9171     0.4860     0.4421     0.4406    14.4503    14.4511    -0.000
     52   -20.1981     60.289   2270.000 444553.000     60.000    41.5367     0.0149    -9.3441     0.0002     0.0005    30.0000    10.0000    10.0000    30.0000    25.0000    10.0000    10.0000    25.0000     0.0019    -0.0024     0.0030    20.7697    41.5355     0.9261     0.4913     0.4470     0.4438    14.4503    14.4511    -0.000
     53   -20.4005     60.143   2195.000 444553.000     60.000    41.5367     0.0149    -9.3441     0.0002     0.0005    30.0000    10.0000    10.0000    30.0000    25.0000    10.0000    10.0000    25.0000     0.0019    -0.0024     0.0030    20.7697    41.5355     0.9353     0.4968     0.4520     0.4470    14.4503    14.4511    -0.000
     54   -20.5982     60.211   2150.000 444553.000     60.000    41.5367     0.0149    -9.3441     0.0002     0.0005    30.0000    10.0000    10.0000    30.0000    25.0000    10.0000    10.0000    25.0000     0.0020    -0.0024     0.0030    20.7697    41.5355     0.9443     0.5021     0.4569     0.4501    14.4503    14.4511    -0.000
