# scan = 168
# date = 5/25/2023
# time = 9:49:50 PM
# proposal = 9879
# experiment = HB-1A  - Backend upgrade commissioning
# experiment_number = 978
# command = th2th 4 -4 0.2
# builtin_command = scan s2 @(s2)+4 @(s2)+-4 0.200000 s1 @(s1)+(4/2) @(s1)+(-4/2) 0.100000
# users = Feng Ye, John Carruth, Adam Aczel, Songxue Chi, Jaime Fernandez-Baca, Masaaki Matsuda, Tao Hong, Travis Williams, Wei Tian, Michael Cox
# local_contact = Wei Tian, Adam Aczel
# scan_title = La2Ni7, ( 0.99994 0.999902 0.997251 ), th2th, RT
# monochromator = PG002
# analyzer = Pg002
# sense = +-+
# collimation = 40-40-40-80
# samplename = Si powdre, Si crystal, FeGa alloy, La2Ni7 crystal, Ba2.8Sr0.2CoSn2O9 crystal
# sampletype = crystal
# samplemosaic = 30.000000
# latticeconstants = 5.055640,5.055640,24.597968,90.000000,90.000000,120.000000
# ubmatrix = -0.007780,-0.010850,0.040605,-0.194566,-0.200455,-0.001928,0.119371,-0.108931,-0.000496
# mode = 0
# plane_normal = 0.013441,0.025785,0.999577
# ubconf = UB25May2023_40539PM.ini
# preset_type = normal 
# preset_channel = mcu
# preset_value = 10.000000
# def_x = s2
# def_y = detector
# col_headers = 
#   Pt.         s2         s1       time   detector    monitor        mcu         m2   rad_coll        sgl        sgu   slitb_bt   slitb_lf   slitb_rt   slitb_tp   slita_bt   slita_lf   slita_rt   slita_tp        stl        stu         sz         a1         a2          q          h          k          l         ei         ef          e
      1   -52.4721    60.5989     10.681    147.000  71101.000     10.000    41.5367     0.0149    -0.7697     1.4783    26.0000     4.0000     7.0000    26.0000    24.0000    10.0000     7.0000    24.0000     0.0014    -0.0023     0.0021    20.7707    41.5468     2.3345     0.9343     0.9343     0.9317    14.4503    14.4436     0.006
      2   -52.6738    60.4987     10.752    154.000  71101.000     10.000    41.5367     0.0149    -0.7697     1.4783    26.0000     4.0000     7.0000    26.0000    24.0000    10.0000     7.0000    24.0000     0.0014    -0.0024     0.0020    20.7706    41.5468     2.3429     0.9377     0.9376     0.9349    14.4503    14.4436     0.006
      3   -52.8721    60.3988     10.701    132.000  71101.000     10.000    41.5367     0.0149    -0.7697     1.4783    26.0000     4.0000     7.0000    26.0000    24.0000    10.0000     7.0000    24.0000     0.0015    -0.0023     0.0021    20.7705    41.5468     2.3511     0.9410     0.9409     0.9383    14.4503    14.4436     0.006
      4   -53.0696    60.2989     10.700    134.000  71101.000     10.000    41.5367     0.0149    -0.7697     1.4783    26.0000     4.0000     7.0000    26.0000    24.0000    10.0000     7.0000    24.0000     0.0014    -0.0023     0.0021    20.7705    41.5468     2.3592     0.9442     0.9442     0.9418    14.4503    14.4436     0.006
      5   -53.2700    60.1991     10.722    134.000  71101.000     10.000    41.5367     0.0149    -0.7697     1.4783    26.0000     4.0000     7.0000    26.0000    24.0000    10.0000     7.0000    24.0000     0.0014    -0.0024     0.0021    20.7704    41.5468     2.3675     0.9475     0.9475     0.9450    14.4503    14.4436     0.006
      6   -53.4713    60.0993     10.617    138.000  71101.000     10.000    41.5367     0.0149    -0.7697     1.4783    26.0000     4.0000     7.0000    26.0000    24.0000    10.0000     7.0000    24.0000     0.0014    -0.0023     0.0021    20.7704    41.5468     2.3758     0.9508     0.9508     0.9482    14.4503    14.4436     0.006
      7   -53.6709    59.9994     10.691    128.000  71101.000     10.000    41.5367     0.0149    -0.7697     1.4783    26.0000     4.0000     7.0000    26.0000    24.0000    10.0000     7.0000    24.0000     0.0014    -0.0023     0.0021    20.7704    41.5468     2.3840     0.9541     0.9541     0.9515    14.4503    14.4436     0.006
      8   -53.8728    59.8996     10.683    146.000  71101.000     10.000    41.5367     0.0149    -0.7697     1.4783    26.0000     4.0000     7.0000    26.0000    24.0000    10.0000     7.0000    24.0000     0.0014    -0.0023     0.0021    20.7703    41.5468     2.3923     0.9574     0.9574     0.9546    14.4503    14.4436     0.006
      9   -54.0737    59.7993     10.729    149.000  71101.000     10.000    41.5367     0.0149    -0.7697     1.4783    26.0000     4.0000     7.0000    26.0000    24.0000    10.0000     7.0000    24.0000     0.0014    -0.0023     0.0021    20.7703    41.5468     2.4005     0.9608     0.9607     0.9579    14.4503    14.4436     0.006
     10   -54.2736    59.6993     10.684    170.000  71101.000     10.000    41.5367     0.0149    -0.7697     1.4783    26.0000     4.0000     7.0000    26.0000    24.0000    10.0000     7.0000    24.0000     0.0014    -0.0023     0.0021    20.7703    41.5468     2.4087     0.9640     0.9640     0.9612    14.4503    14.4436     0.006
     11   -54.4702    59.5989     10.667    177.000  71101.000     10.000    41.5367     0.0149    -0.7697     1.4783    26.0000     4.0000     7.0000    26.0000    24.0000    10.0000     7.0000    24.0000     0.0014    -0.0023     0.0021    20.7703    41.5468     2.4168     0.9673     0.9672     0.9648    14.4503    14.4436     0.006
     12   -54.6692    59.4987     10.654    185.000  71101.000     10.000    41.5367     0.0149    -0.7697     1.4783    26.0000     4.0000     7.0000    26.0000    24.0000    10.0000     7.0000    24.0000     0.0014    -0.0023     0.0021    20.7703    41.5468     2.4249     0.9705     0.9705     0.9681    14.4503    14.4436     0.006
     13   -54.8739    59.3990     10.699    175.000  71101.000     10.000    41.5367     0.0149    -0.7697     1.4783    26.0000     4.0000     7.0000    26.0000    24.0000    10.0000     7.0000    24.0000     0.0014    -0.0023     0.0021    20.7702    41.5468     2.4333     0.9739     0.9738     0.9710    14.4503    14.4436     0.006
     14   -55.0717    59.2990     10.677    185.000  71101.000     10.000    41.5367     0.0149    -0.7697     1.4783    26.0000     4.0000     7.0000    26.0000    24.0000    10.0000     7.0000    24.0000     0.0015    -0.0023     0.0021    20.7702    41.5468     2.4414     0.9771     0.9771     0.9745    14.4503    14.4436     0.006
     15   -55.2716    59.1991     10.681    199.000  71101.000     10.000    41.5367     0.0149    -0.7697     1.4783    26.0000     4.0000     7.0000    26.0000    24.0000    10.0000     7.0000    24.0000     0.0014    -0.0023     0.0021    20.7702    41.5468     2.4496     0.9804     0.9803     0.9777    14.4503    14.4436     0.006
     16   -55.4749    59.0993     10.709    178.000  71101.000     10.000    41.5367     0.0149    -0.7697     1.4783    26.0000     4.0000     7.0000    26.0000    24.0000    10.0000     7.0000    24.0000     0.0014    -0.0023     0.0021    20.7702    41.5468     2.4579     0.9837     0.9837     0.9807    14.4503    14.4436     0.006
     17   -55.6751    58.9994     10.759    205.000  71101.000     10.000    41.5367     0.0149    -0.7697     1.4783    26.0000     4.0000     7.0000    26.0000    24.0000    10.0000     7.0000    24.0000     0.0014    -0.0023     0.0021    20.7702    41.5468     2.4660     0.9870     0.9869     0.9840    14.4503    14.4436     0.006
     18   -55.8757    58.8996     10.694    275.000  71101.000     10.000    41.5367     0.0149    -0.7697     1.4783    26.0000     4.0000     7.0000    26.0000    24.0000    10.0000     7.0000    24.0000     0.0014    -0.0023     0.0021    20.7702    41.5468     2.4742     0.9902     0.9902     0.9872    14.4503    14.4436     0.006
     19   -56.0736    58.7994     10.684    355.000  71101.000     10.000    41.5367     0.0149    -0.7697     1.4783    26.0000     4.0000     7.0000    26.0000    24.0000    10.0000     7.0000    24.0000     0.0014    -0.0023     0.0021    20.7702    41.5468     2.4822     0.9935     0.9934     0.9906    14.4503    14.4436     0.006
     20   -56.2687    58.6992     10.671    435.000  71101.000     10.000    41.5367     0.0149    -0.7697     1.4783    26.0000     4.0000     7.0000    26.0000    24.0000    10.0000     7.0000    24.0000     0.0014    -0.0023     0.0021    20.7702    41.5468     2.4902     0.9966     0.9966     0.9942    14.4503    14.4436     0.006
     21   -56.4693    58.5988     10.750    550.000  71101.000     10.000    41.5367     0.0149    -0.7697     1.4783    26.0000     4.0000     7.0000    26.0000    24.0000    10.0000     7.0000    24.0000     0.0014    -0.0023     0.0021    20.7702    41.5468     2.4983     0.9999     0.9999     0.9975    14.4503    14.4436     0.006
     22   -56.6718    58.4990     10.612    548.000  71101.000     10.000    41.5367     0.0149    -0.7697     1.4783    26.0000     4.0000     7.0000    26.0000    24.0000    10.0000     7.0000    24.0000     0.0014    -0.0023     0.0021    20.7702    41.5468     2.5065     1.0032     1.0031     1.0005    14.4503    14.4436     0.006
     23   -56.8686    58.3990     10.652    444.000  71101.000     10.000    41.5367     0.0149    -0.7697     1.4783    26.0000     4.0000     7.0000    26.0000    24.0000    10.0000     7.0000    24.0000     0.0014    -0.0023     0.0021    20.7702    41.5468     2.5145     1.0064     1.0063     1.0040    14.4503    14.4436     0.006
     24   -57.0733    58.2988     10.614    305.000  71101.000     10.000    41.5367     0.0149    -0.7697     1.4783    26.0000     4.0000     7.0000    26.0000    24.0000    10.0000     7.0000    24.0000     0.0014    -0.0024     0.0021    20.7701    41.5468     2.5228     1.0097     1.0097     1.0069    14.4503    14.4436     0.006
     25   -57.2755    58.1993     10.658    189.000  71101.000     10.000    41.5367     0.0149    -0.7697     1.4783    26.0000     4.0000     7.0000    26.0000    24.0000    10.0000     7.0000    24.0000     0.0014    -0.0023     0.0021    20.7701    41.5468     2.5310     1.0130     1.0129     1.0099    14.4503    14.4436     0.006
     26   -57.4749    58.0992     10.675    135.000  71101.000     10.000    41.5367     0.0149    -0.7697     1.4783    26.0000     4.0000     7.0000    26.0000    24.0000    10.0000     7.0000    24.0000     0.0015    -0.0024     0.0021    20.7701    41.5468     2.5391     1.0162     1.0162     1.0132    14.4503    14.4436     0.006
     27   -57.6728    57.9993     10.683    137.000  71101.000     10.000    41.5367     0.0149    -0.7697     1.4783    26.0000     4.0000     7.0000    26.0000    24.0000    10.0000     7.0000    24.0000     0.0014    -0.0023     0.0021    20.7701    41.5468     2.5470     1.0194     1.0194     1.0166    14.4503    14.4436     0.006
     28   -57.8719    57.8996     10.639    138.000  71101.000     10.000    41.5367     0.0149    -0.7697     1.4783    26.0000     4.0000     7.0000    26.0000    24.0000    10.0000     7.0000    24.0000     0.0014    -0.0023     0.0021    20.7701    41.5468     2.5551     1.0226     1.0226     1.0199    14.4503    14.4436     0.006
     29   -58.0707    57.7992     10.676    137.000  71101.000     10.000    41.5367     0.0149    -0.7697     1.4783    26.0000     4.0000     7.0000    26.0000    24.0000    10.0000     7.0000    24.0000     0.0014    -0.0023     0.0021    20.7701    41.5468     2.5631     1.0258     1.0258     1.0232    14.4503    14.4436     0.006
     30   -58.2717    57.6992     10.570    130.000  71101.000     10.000    41.5367     0.0149    -0.7697     1.4783    26.0000     4.0000     7.0000    26.0000    24.0000    10.0000     7.0000    24.0000     0.0015    -0.0023     0.0021    20.7701    41.5468     2.5712     1.0291     1.0290     1.0264    14.4503    14.4436     0.006
     31   -58.4712    57.5989     10.678    157.000  71101.000     10.000    41.5367     0.0149    -0.7697     1.4783    26.0000     4.0000     7.0000    26.0000    24.0000    10.0000     7.0000    24.0000     0.0014    -0.0023     0.0021    20.7701    41.5468     2.5792     1.0323     1.0322     1.0297    14.4503    14.4436     0.006
     32   -58.6714    57.4988     10.657    168.000  71101.000     10.000    41.5367     0.0149    -0.7697     1.4783    26.0000     4.0000     7.0000    26.0000    24.0000    10.0000     7.0000    24.0000     0.0014    -0.0023     0.0021    20.7701    41.5468     2.5873     1.0355     1.0354     1.0329    14.4503    14.4436     0.006
     33   -58.8740    57.3992     10.665    138.000  71101.000     10.000    41.5367     0.0149    -0.7697     1.4783    26.0000     4.0000     7.0000    26.0000    24.0000    10.0000     7.0000    24.0000     0.0015    -0.0023     0.0021    20.7701    41.5468     2.5954     1.0387     1.0387     1.0359    14.4503    14.4436     0.006
     34   -59.0742    57.2988     10.609    133.000  71101.000     10.000    41.5367     0.0149    -0.7697     1.4783    26.0000     4.0000     7.0000    26.0000    24.0000    10.0000     7.0000    24.0000     0.0014    -0.0023     0.0021    20.7701    41.5468     2.6034     1.0420     1.0419     1.0391    14.4503    14.4436     0.006
     35   -59.2723    57.1993     10.722    150.000  71101.000     10.000    41.5367     0.0149    -0.7697     1.4783    26.0000     4.0000     7.0000    26.0000    24.0000    10.0000     7.0000    24.0000     0.0014    -0.0023     0.0021    20.7701    41.5468     2.6114     1.0451     1.0451     1.0424    14.4503    14.4436     0.006
     36   -59.4698    57.0992     10.752    148.000  71101.000     10.000    41.5367     0.0149    -0.7697     1.4783    26.0000     4.0000     7.0000    26.0000    24.0000    10.0000     7.0000    24.0000     0.0014    -0.0023     0.0021    20.7701    41.5468     2.6193     1.0483     1.0483     1.0458    14.4503    14.4436     0.006
     37   -59.6683    56.9994     10.695    133.000  71101.000     10.000    41.5367     0.0149    -0.7697     1.4783    26.0000     4.0000     7.0000    26.0000    24.0000    10.0000     7.0000    24.0000     0.0014    -0.0023     0.0021    20.7701    41.5468     2.6272     1.0515     1.0514     1.0491    14.4503    14.4436     0.006
     38   -59.8704    56.8995     10.659    155.000  71101.000     10.000    41.5367     0.0149    -0.7697     1.4783    26.0000     4.0000     7.0000    26.0000    24.0000    10.0000     7.0000    24.0000     0.0014    -0.0023     0.0021    20.7701    41.5468     2.6353     1.0547     1.0547     1.0521    14.4503    14.4436     0.006
     39   -60.0706    56.7992     10.754    188.000  71101.000     10.000    41.5367     0.0149    -0.7697     1.4783    26.0000     4.0000     7.0000    26.0000    24.0000    10.0000     7.0000    24.0000     0.0015    -0.0023     0.0021    20.7700    41.5468     2.6433     1.0579     1.0579     1.0553    14.4503    14.4436     0.006
     40   -60.2718    56.6991     10.752    415.000  71101.000     10.000    41.5367     0.0149    -0.7697     1.4783    26.0000     4.0000     7.0000    26.0000    24.0000    10.0000     7.0000    24.0000     0.0014    -0.0023     0.0021    20.7700    41.5468     2.6513     1.0611     1.0611     1.0584    14.4503    14.4436     0.006
     41   -60.4739    56.5988     10.729   1059.000  71101.000     10.000    41.5367     0.0149    -0.7697     1.4783    26.0000     4.0000     7.0000    26.0000    24.0000    10.0000     7.0000    24.0000     0.0015    -0.0023     0.0021    20.7700    41.5468     2.6594     1.0643     1.0643     1.0615    14.4503    14.4436     0.006
# Sum of Counts = 9358
# Center of Mass = -56.965374+/-0.833135
# Full Width Half-Maximum = 4.650986+/-0.352976
# 9:59:11 PM  5/25/2023   scan completed.
