# scan = 679
# date = 5/29/2023
# time = 3:43:41 AM
# proposal = 9879
# experiment = HB-1A  - Backend upgrade commissioning
# experiment_number = 978
# command = scan h 0.961 1.039 0.003 k 0.961 1.039 0.003 l 0.09
# builtin_command = scan h 0.961 1.039 0.003 k 0.961 1.039 0.003 l 0.09
# users = Feng Ye, John Carruth, Adam Aczel, Songxue Chi, Jaime Fernandez-Baca, Masaaki Matsuda, Tao Hong, Travis Williams, Wei Tian, Michael Cox
# local_contact = Wei Tian, Adam Aczel
# scan_title = La2Ni7, ( 0.999916 0.99988 -0.002084 ), 40'-20'-S-20'-20' colli
# monochromator = PG002
# analyzer = Pg002
# sense = +-+
# collimation = 40-40-40-80
# samplename = Si powdre, Si crystal, FeGa alloy, La2Ni7 crystal, Ba2.8Sr0.2CoSn2O9 crystal
# sampletype = crystal
# samplemosaic = 30.000000
# latticeconstants = 5.084792,5.084792,24.669626,90.000000,90.000000,120.000000
# ubmatrix = -0.007838,-0.010887,0.040486,-0.193443,-0.199303,-0.001943,0.118692,-0.108301,-0.000494
# mode = 0
# plane_normal = 0.013424,0.025807,0.999577
# ubconf = UB27May2023_80143PM.ini
# preset_type = normal 
# preset_channel = mcu
# preset_value = 2.000000
# def_x = h
# def_y = detector
# col_headers = 
#   Pt.          h          k          l       time   detector    monitor        mcu         m2   rad_coll         s1         s2        sgl        sgu   slitb_bt   slitb_lf   slitb_rt   slitb_tp   slita_bt   slita_lf   slita_rt   slita_tp        stl        stu         sz         a1         a2          q         ei         ef          e
      1     0.9610     0.9610     0.0900      2.004      3.000  14221.000      2.000    41.5367     0.0149    65.4361   -53.4544    -0.7692     1.4795    26.0000     4.0000     7.0000    26.0000    24.0000    10.0000     7.0000    24.0000     0.0014    -0.0024     0.0023    20.7701    41.5465     2.3751    14.4503    14.4438     0.006
      2     0.9640     0.9639     0.0903      2.050      0.000  14221.000      2.000    41.5367     0.0149    65.3470   -53.6322    -0.7692     1.4795    26.0000     4.0000     7.0000    26.0000    24.0000    10.0000     7.0000    24.0000     0.0014    -0.0024     0.0023    20.7700    41.5465     2.3824    14.4503    14.4438     0.006
      3     0.9670     0.9670     0.0900      2.003      5.000  14221.000      2.000    41.5367     0.0149    65.2584   -53.8168    -0.7692     1.4795    26.0000     4.0000     7.0000    26.0000    24.0000    10.0000     7.0000    24.0000     0.0014    -0.0024     0.0023    20.7700    41.5465     2.3900    14.4503    14.4438     0.006
      4     0.9700     0.9700     0.0898      1.988      1.000  14221.000      2.000    41.5367     0.0149    65.1709   -53.9974    -0.7692     1.4795    26.0000     4.0000     7.0000    26.0000    24.0000    10.0000     7.0000    24.0000     0.0014    -0.0024     0.0023    20.7700    41.5465     2.3974    14.4503    14.4438     0.006
      5     0.9730     0.9730     0.0899      2.022      7.000  14221.000      2.000    41.5367     0.0149    65.0818   -54.1785    -0.7692     1.4795    26.0000     4.0000     7.0000    26.0000    24.0000    10.0000     7.0000    24.0000     0.0014    -0.0024     0.0023    20.7700    41.5465     2.4048    14.4503    14.4438     0.006
      6     0.9760     0.9760     0.0900      2.017     11.000  14221.000      2.000    41.5367     0.0149    64.9935   -54.3571    -0.7692     1.4795    26.0000     4.0000     7.0000    26.0000    24.0000    10.0000     7.0000    24.0000     0.0014    -0.0024     0.0023    20.7700    41.5465     2.4121    14.4503    14.4438     0.006
      7     0.9790     0.9789     0.0902      2.027     12.000  14221.000      2.000    41.5367     0.0149    64.9048   -54.5348    -0.7692     1.4795    26.0000     4.0000     7.0000    26.0000    24.0000    10.0000     7.0000    24.0000     0.0014    -0.0024     0.0023    20.7700    41.5465     2.4194    14.4503    14.4438     0.006
      8     0.9820     0.9819     0.0901      2.008     11.000  14221.000      2.000    41.5367     0.0149    64.8164   -54.7170    -0.7692     1.4795    26.0000     4.0000     7.0000    26.0000    24.0000    10.0000     7.0000    24.0000     0.0014    -0.0024     0.0023    20.7700    41.5465     2.4269    14.4503    14.4438     0.006
      9     0.9850     0.9850     0.0900      2.015      8.000  14221.000      2.000    41.5367     0.0149    64.7270   -54.8993    -0.7692     1.4795    26.0000     4.0000     7.0000    26.0000    24.0000    10.0000     7.0000    24.0000     0.0014    -0.0024     0.0023    20.7699    41.5465     2.4344    14.4503    14.4438     0.006
     10     0.9880     0.9880     0.0899      2.020      7.000  14221.000      2.000    41.5367     0.0149    64.6376   -55.0832    -0.7692     1.4795    26.0000     4.0000     7.0000    26.0000    24.0000    10.0000     7.0000    24.0000     0.0014    -0.0024     0.0023    20.7699    41.5465     2.4419    14.4503    14.4438     0.006
     11     0.9910     0.9910     0.0901      1.973     13.000  14221.000      2.000    41.5367     0.0149    64.5484   -55.2625    -0.7692     1.4795    26.0000     4.0000     7.0000    26.0000    24.0000    10.0000     7.0000    24.0000     0.0014    -0.0024     0.0024    20.7699    41.5465     2.4492    14.4503    14.4438     0.006
     12     0.9941     0.9940     0.0898      2.009     36.000  14221.000      2.000    41.5367     0.0149    64.4588   -55.4487    -0.7692     1.4795    26.0000     4.0000     7.0000    26.0000    24.0000    10.0000     7.0000    24.0000     0.0014    -0.0024     0.0023    20.7699    41.5465     2.4568    14.4503    14.4438     0.006
     13     0.9970     0.9970     0.0899      2.026     46.000  14221.000      2.000    41.5367     0.0149    64.3703   -55.6278    -0.7692     1.4795    26.0000     4.0000     7.0000    26.0000    24.0000    10.0000     7.0000    24.0000     0.0014    -0.0024     0.0023    20.7699    41.5465     2.4641    14.4503    14.4438     0.006
     14     1.0001     1.0000     0.0897      2.023     48.000  14221.000      2.000    41.5367     0.0149    64.2809   -55.8122    -0.7692     1.4795    26.0000     4.0000     7.0000    26.0000    24.0000    10.0000     7.0000    24.0000     0.0014    -0.0024     0.0023    20.7699    41.5465     2.4716    14.4503    14.4438     0.006
     15     1.0030     1.0030     0.0899      2.028     31.000  14221.000      2.000    41.5367     0.0149    64.1919   -55.9917    -0.7692     1.4795    26.0000     4.0000     7.0000    26.0000    24.0000    10.0000     7.0000    24.0000     0.0014    -0.0024     0.0023    20.7699    41.5465     2.4789    14.4503    14.4438     0.006
     16     1.0060     1.0059     0.0902      2.015     26.000  14221.000      2.000    41.5367     0.0149    64.1020   -56.1712    -0.7692     1.4795    26.0000     4.0000     7.0000    26.0000    24.0000    10.0000     7.0000    24.0000     0.0014    -0.0024     0.0023    20.7699    41.5465     2.4862    14.4503    14.4438     0.006
     17     1.0090     1.0089     0.0901      2.019     24.000  14221.000      2.000    41.5367     0.0149    64.0125   -56.3536    -0.7692     1.4795    26.0000     4.0000     7.0000    26.0000    24.0000    10.0000     7.0000    24.0000     0.0014    -0.0024     0.0023    20.7699    41.5465     2.4936    14.4503    14.4438     0.006
     18     1.0120     1.0120     0.0900      2.009      9.000  14221.000      2.000    41.5367     0.0149    63.9231   -56.5375    -0.7691     1.4795    26.0000     4.0000     7.0000    26.0000    24.0000    10.0000     7.0000    24.0000     0.0014    -0.0024     0.0023    20.7699    41.5465     2.5011    14.4503    14.4437     0.006
     19     1.0150     1.0149     0.0902      2.025      7.000  14221.000      2.000    41.5367     0.0149    63.8333   -56.7180    -0.7692     1.4795    26.0000     4.0000     7.0000    26.0000    24.0000    10.0000     7.0000    24.0000     0.0014    -0.0024     0.0023    20.7699    41.5465     2.5084    14.4503    14.4438     0.006
     20     1.0180     1.0180     0.0901      2.016      2.000  14221.000      2.000    41.5367     0.0149    63.7433   -56.9020    -0.7692     1.4795    26.0000     4.0000     7.0000    26.0000    24.0000    10.0000     7.0000    24.0000     0.0014    -0.0024     0.0023    20.7699    41.5465     2.5159    14.4503    14.4438     0.006
     21     1.0210     1.0210     0.0898      1.978      4.000  14221.000      2.000    41.5367     0.0149    63.6533   -57.0888    -0.7692     1.4795    26.0000     4.0000     7.0000    26.0000    24.0000    10.0000     7.0000    24.0000     0.0014    -0.0024     0.0023    20.7699    41.5465     2.5234    14.4503    14.4438     0.006
     22     1.0241     1.0240     0.0898      2.013      1.000  14221.000      2.000    41.5367     0.0149    63.5627   -57.2728    -0.7692     1.4795    26.0000     4.0000     7.0000    26.0000    24.0000    10.0000     7.0000    24.0000     0.0014    -0.0024     0.0023    20.7699    41.5465     2.5309    14.4503    14.4438     0.006
     23     1.0271     1.0270     0.0897      1.978      4.000  14221.000      2.000    41.5367     0.0149    63.4731   -57.4567    -0.7692     1.4795    26.0000     4.0000     7.0000    26.0000    24.0000    10.0000     7.0000    24.0000     0.0014    -0.0024     0.0023    20.7699    41.5465     2.5383    14.4503    14.4438     0.006
     24     1.0300     1.0300     0.0900      2.046      6.000  14221.000      2.000    41.5367     0.0149    63.3821   -57.6387    -0.7692     1.4795    26.0000     4.0000     7.0000    26.0000    24.0000    10.0000     7.0000    24.0000     0.0014    -0.0024     0.0023    20.7699    41.5465     2.5457    14.4503    14.4438     0.006
     25     1.0330     1.0330     0.0901      2.032      2.000  14221.000      2.000    41.5367     0.0149    63.2924   -57.8193    -0.7691     1.4795    26.0000     4.0000     7.0000    26.0000    24.0000    10.0000     7.0000    24.0000     0.0014    -0.0024     0.0023    20.7699    41.5465     2.5530    14.4503    14.4437     0.006
     26     1.0360     1.0360     0.0901      2.047      1.000  14221.000      2.000    41.5367     0.0149    63.2021   -58.0033    -0.7692     1.4795    26.0000     4.0000     7.0000    26.0000    24.0000    10.0000     7.0000    24.0000     0.0014    -0.0024     0.0023    20.7698    41.5465     2.5604    14.4503    14.4437     0.006
     27     1.0390     1.0390     0.0898      2.012      2.000  14221.000      2.000    41.5367     0.0149    63.1119   -58.1898    -0.7691     1.4795    26.0000     4.0000     7.0000    26.0000    24.0000    10.0000     7.0000    24.0000     0.0014    -0.0024     0.0023    20.7698    41.5465     2.5679    14.4503    14.4438     0.006
# Sum of Counts = 327
# Center of Mass = 0.998192+/-0.078068
# Full Width Half-Maximum = 0.026987+/-0.025185
# 3:50:08 AM  5/29/2023   scan completed.
