# scan = 38
# date = 9/16/2025
# time = 11:41:24 PM
# proposal = 9880
# experiment = HB-1 Instrument Calibration
# experiment_number = 974
# command = scan psd -5 5 10
# builtin_command = scan psd -5 5 10
# users = Adam Aczel, Andrew Christianson, Songxue Chi, Fankang Li, Masaaki Matsuda, Tao Hong, Wei Tian, Jaime Fernandez-Baca, Michael Cox
# local_contact = M. Matsuda
# scan_title = sanity check after 50A
# monochromator = Heusler
# analyzer = Heusler
# sense = +-+
# collimation = 48-80-999-999
# samplename = Si
# sampletype = crystal
# samplemosaic = 30.000000
# latticeconstants = 5.000000,5.000000,5.000000,90.000000,90.000000,90.000000
# ubmatrix = 0.141421,0.141421,-0.000000,-0.000000,-0.000000,0.200000,0.141421,-0.141421,0.000000
# mode = 0
# plane_normal = 0.000000,0.000000,1.000000
# ubconf = UB16Sep2025_61228PM.ini
# preset_type = normal 
# preset_channel = time
# preset_value = 2.000000
# def_x = psd
# def_y = detector
# col_headers = 
#   Pt.        psd       time   detector    monitor        mcu         m1         m2       marc     mtrans     mfocus    mag_top    mag_bot    mag_pre   mag_post    nut_pre   nut_post   mode1set   mode2set   mode3set   mode4set   mode5set   mode6set output1set output2set output3set output4set output5set output6set   volt1set   volt2set   volt3set   volt4set   volt5set   volt6set        psa        psb        psc        pse        psf  ramprate1  ramprate2  ramprate3  ramprate4  ramprate5  ramprate6         s1         s2        sgl        sgu        stl        stu         a1         a2          q          h          k          l         ei         ef          e   psa_dcct   psb_dcct    hb2a_bz     hb1_bx     hb1_by     hb1_bz 34972a_status      curr1      curr2      curr3      curr4      curr5      curr6   psa_read   psb_read   psc_read   psd_read   pse_read   psf_read snp_status
      1    -5.0000      2.000   1527.000   1410.000      1.524     0.0000     1.0692     0.0000     0.0000     0.0000     0.0000     0.0000    -1.2000    -0.2000     5.0000     5.0000     0.0000     0.0000     0.0000     0.0000     0.0000     0.0000     0.0000     0.0000     0.0000     0.0000     0.0000     0.0000    20.0000    20.0000    20.0000    20.0000    20.0000    20.0000     2.0000    -5.0000    -5.0000     0.0000     0.0000     0.1000     0.1000     0.1000     1.0000     0.1000     0.1000   -31.9689   -47.1530     0.0000    -1.4990     0.0020     0.0000    21.3613    42.4865    96.2699    28.3713    30.7464   -64.1770 19887.5688    13.1872 19874.3816     2.0247    -5.0644    -0.9510     4.2644     6.5780     1.0231     0.0000     0.0013    -0.0017    -1.2236     0.0091     0.0007     5.9861     2.0031    -4.9984    -4.9961    -4.9962     0.0008     0.0000     0.000
      2     5.0000      2.000   5900.000   1395.000      1.508     0.0000     1.0692     0.0000     0.0000     0.0000     0.0000     0.0000    -1.2000    -0.2000     5.0000     5.0000     0.0000     0.0000     0.0000     0.0000     0.0000     0.0000     0.0000     0.0000     0.0000     0.0000     0.0000     0.0000    20.0000    20.0000    20.0000    20.0000    20.0000    20.0000     2.0000    -5.0000    -5.0000     0.0000     0.0000     0.1000     0.1000     0.1000     1.0000     0.1000     0.1000   -31.9689   -47.1530     0.0000    -1.4990     0.0020     0.0000    21.3613    42.4865    96.2699    28.3713    30.7464   -64.1770 19887.5688    13.1872 19874.3816     2.0246    -5.0643    -0.9490     4.3192     6.5814     1.1124     0.0000     0.0013    -0.0017    -1.2236     0.0091     0.0007     5.9861     2.0031    -4.9985    -4.9962     4.9955     0.0008     0.0000     0.000
# Sum of Counts = 7427
# Center of Mass = 2.943988+/-0.067328
# Full Width Half-Maximum = 8.082805+/-0.122430
# 11:42:10 PM  9/16/2025   scan completed.
