# scan = 95
# date = 9/12/2024
# time = 7:31:59 AM
# proposal = 34735
# experiment = Magnons and paramagnon coupling in MnTe
# experiment_number = 813
# command = scan h 1.425 k 0.0 l 1.425 e 45 31 0.2 ef 14.7 preset mcu 120
# builtin_command = scan h 1.425 k 0.0 l 1.425 e 45 31 0.2 ef 14.7 preset mcu 120
# users = Benjamin Frandsen, Songxue Chi, George Yumnam, Huibo Cao, Michael Manley, Raphael Hermann, Eleanor Clements
# local_contact = Eleanor Clements
# scan_title = H0L scans along (101) to (1.5, 0, 1.5) at H/L = 1.425, mcu = 120, E= 45 to 31 mev
# monochromator = PG002
# analyzer = Pg002
# sense = -+-
# collimation = 48-40-40-120
# samplename = MnTe
# sampletype = crystal
# samplemosaic = 30.000000
# latticeconstants = 4.128474,4.128474,6.651507,90.000000,90.000000,120.000000
# ubmatrix = -0.000328,-0.004396,-0.150319,-0.279308,-0.152332,0.000314,-0.014647,0.234528,-0.002614
# mode = 0
# plane_normal = -0.017470,-0.052341,0.998476
# ubconf = UB09Sep2024_43441PM.ini
# preset_type = normal
# preset_channel = mcu
# preset_value = 120.000000
# def_x = e
# def_y = detector
# col_headers =
#   Pt.          h          k          l          e         ef       time   detector    monitor        mcu focal_length         m1         m2   mcrystal       marc     mtrans     mfocus       ampl         dc       freq     output       temp     temp_2         s1         s2        sgl        sgu        bbb        bbl        bbr        bbt        bab        bal        bar        bat        stl        stu         a1         a2          q         ei   ampl_out output_state        vti     sample
      1     1.4251     0.0000     1.4250    45.0050    14.7000    103.688     27.000 301441.000    120.000    33.1461   -20.0773   -20.0928   120.0962    -0.1480    -3.0001   -73.0266     0.0000     0.0000     0.0000     1.0000     5.0000   300.0000    15.8477    13.3342     1.0010    -2.9998     9.0000    10.0000     5.0000    14.0000    16.0000     5.0000    10.0000    16.0000    -0.0005     0.0005   159.4167   -41.1662     2.8433    59.7050     2.0000     1.0000     5.0008     0.000
      2     1.4250     0.0000     1.4251    44.8003    14.7000    103.016     17.000 301441.000    120.000    33.2017   -20.0773   -20.1277   120.0962    -0.1480    -3.0001   -72.8904     0.0000     0.0000     0.0000     1.0000     5.0000   300.0000    15.4484    13.7657     1.0010    -2.9998     9.0000    10.0000     5.0000    14.0000    16.0000     5.0000    10.0000    16.0000    -0.0005     0.0005   159.4167   -41.1662     2.8432    59.5003     2.0000     1.0000     4.9999     0.000
      3     1.4250     0.0000     1.4251    44.5998    14.7000    102.839     23.000 301441.000    120.000    33.2576   -20.0773   -20.1620   120.0962    -0.1480    -3.0001   -72.7541     0.0000     0.0000     0.0000     1.0000     5.0000   300.0000    15.0606    14.1802     1.0010    -2.9998     9.0000    10.0000     5.0000    14.0000    16.0000     5.0000    10.0000    16.0000    -0.0005     0.0005   159.4167   -41.1662     2.8431    59.2998     2.0000     1.0000     4.9999     0.000
      4     1.4250     0.0000     1.4251    44.4000    14.7000    102.464     19.000 301441.000    120.000    33.3139   -20.0773   -20.1964   120.0962    -0.1480    -3.0001   -72.6175     0.0000     0.0000     0.0000     1.0000     5.0000   300.0000    14.6834    14.5844     1.0010    -2.9998     9.0000    10.0000     5.0000    14.0000    16.0000     5.0000    10.0000    16.0000    -0.0005     0.0005   159.4167   -41.1662     2.8431    59.1000     2.0000     1.0000     5.0004     0.000
      5     1.4250     0.0000     1.4251    44.1996    14.7000    102.274     23.000 301441.000    120.000    33.3704   -20.0773   -20.2311   120.0962    -0.1480    -3.0001   -72.4808     0.0000     0.0000     0.0000     1.0000     5.0000   300.0000    14.3153    14.9794     1.0010    -2.9998     9.0000    10.0000     5.0000    14.0000    16.0000     5.0000    10.0000    16.0000    -0.0005     0.0005   159.4167   -41.1662     2.8431    58.8996     2.0000     1.0000     5.0002     0.000
      6     1.4250     0.0000     1.4252    44.0002    14.7000    102.253     28.000 301441.000    120.000    33.4272   -20.0773   -20.2658   120.0962    -0.1480    -3.0001   -72.3439     0.0000     0.0000     0.0000     1.0000     5.0000   300.0000    13.9558    15.3661     1.0010    -2.9998     9.0000    10.0000     5.0000    14.0000    16.0000     5.0000    10.0000    16.0000    -0.0005     0.0005   159.4167   -41.1662     2.8432    58.7002     2.0000     1.0000     5.0003     0.000
      7     1.4250     0.0000     1.4251    43.7988    14.7000    101.890     34.000 301441.000    120.000    33.4843   -20.0773   -20.3011   120.0962    -0.1480    -3.0001   -72.2068     0.0000     0.0000     0.0000     1.0000     5.0000   300.0000    13.6044    15.7414     1.0010    -2.9998     9.0000    10.0000     5.0000    14.0000    16.0000     5.0000    10.0000    16.0000    -0.0005     0.0005   159.4167   -41.1662     2.8431    58.4988     2.0000     1.0000     5.0005     0.000
      8     1.4250     0.0000     1.4250    43.6001    14.7000    101.560     25.000 301441.000    120.000    33.5417   -20.0773   -20.3360   120.0962    -0.1480    -3.0001   -72.0695     0.0000     0.0000     0.0000     1.0000     5.0000   300.0000    13.2605    16.1094     1.0010    -2.9998     9.0000    10.0000     5.0000    14.0000    16.0000     5.0000    10.0000    16.0000    -0.0005     0.0005   159.4167   -41.1662     2.8431    58.3001     2.0000     1.0000     4.9998     0.000
      9     1.4250     0.0000     1.4250    43.4007    14.7000    101.694     34.000 301441.000    120.000    33.5993   -20.0773   -20.3712   120.0962    -0.1480    -3.0001   -71.9320     0.0000     0.0000     0.0000     1.0000     5.0000   300.0000    12.9239    16.4692     1.0010    -2.9998     9.0000    10.0000     5.0000    14.0000    16.0000     5.0000    10.0000    16.0000    -0.0005     0.0005   159.4167   -41.1662     2.8431    58.1007     2.0000     1.0000     5.0001     0.000
     10     1.4250     0.0000     1.4250    43.1997    14.7000    101.366     27.000 301441.000    120.000    33.6573   -20.0773   -20.4069   120.0962    -0.1480    -3.0001   -71.7944     0.0000     0.0000     0.0000     1.0000     5.0000   300.0000    12.5934    16.8241     1.0010    -2.9998     9.0000    10.0000     5.0000    14.0000    16.0000     5.0000    10.0000    16.0000    -0.0005     0.0005   159.4167   -41.1662     2.8431    57.8997     2.0000     1.0000     4.9999     0.000
     11     1.4250     0.0000     1.4251    43.0005    14.7000    102.121     32.000 301441.000    120.000    33.7156   -20.0773   -20.4425   120.0962    -0.1480    -3.0001   -71.6566     0.0000     0.0000     0.0000     1.0000     5.0000   300.0000    12.2690    17.1749     1.0010    -2.9998     9.0000    10.0000     5.0000    14.0000    16.0000     5.0000    10.0000    16.0000    -0.0005     0.0005   159.4167   -41.1662     2.8432    57.7005     2.0000     1.0000     4.9999     0.000
     12     1.4250     0.0000     1.4251    42.7986    14.7000    101.987     31.000 301441.000    120.000    33.7742   -20.0773   -20.4787   120.0962    -0.1480    -3.0001   -71.5185     0.0000     0.0000     0.0000     1.0000     5.0000   300.0000    11.9505    17.5161     1.0010    -2.9998     9.0000    10.0000     5.0000    14.0000    16.0000     5.0000    10.0000    16.0000    -0.0005     0.0005   159.4167   -41.1662     2.8431    57.4986     2.0000     1.0000     5.0001     0.000
     13     1.4250     0.0000     1.4250    42.6015    14.7000    102.553     28.000 301441.000    120.000    33.8331   -20.0773   -20.5143   120.0962    -0.1480    -3.0001   -71.3803     0.0000     0.0000     0.0000     1.0000     5.0000   300.0000    11.6376    17.8501     1.0010    -2.9998     9.0000    10.0000     5.0000    14.0000    16.0000     5.0000    10.0000    16.0000    -0.0005     0.0005   159.4167   -41.1662     2.8431    57.3015     2.0000     1.0000     4.9990     0.000
     14     1.4250     0.0000     1.4251    42.3993    14.7000    102.704     44.000 301441.000    120.000    33.8923   -20.0773   -20.5510   120.0962    -0.1480    -3.0001   -71.2419     0.0000     0.0000     0.0000     1.0000     5.0000   300.0000    11.3294    18.1832     1.0010    -2.9998     9.0000    10.0000     5.0000    14.0000    16.0000     5.0000    10.0000    16.0000    -0.0005     0.0005   159.4167   -41.1662     2.8431    57.0993     2.0000     1.0000     5.0003     0.000
     15     1.4250     0.0000     1.4250    42.1993    14.7000    103.086     40.000 301441.000    120.000    33.9518   -20.0773   -20.5875   120.0962    -0.1480    -3.0001   -71.1034     0.0000     0.0000     0.0000     1.0000     5.0000   300.0000    11.0260    18.5080     1.0010    -2.9998     9.0000    10.0000     5.0000    14.0000    16.0000     5.0000    10.0000    16.0000    -0.0005     0.0005   159.4167   -41.1662     2.8431    56.8993     2.0000     1.0000     4.9999     0.000
     16     1.4250     0.0000     1.4250    42.0005    14.7000    103.296     39.000 301441.000    120.000    34.0116   -20.0773   -20.6239   120.0962    -0.1480    -3.0001   -70.9646     0.0000     0.0000     0.0000     1.0000     5.0000   300.0000    10.7280    18.8285     1.0010    -2.9998     9.0000    10.0000     5.0000    14.0000    16.0000     5.0000    10.0000    16.0000    -0.0005     0.0005   159.4167   -41.1662     2.8431    56.7006     2.0000     1.0000     5.0004     0.000
     17     1.4250     0.0000     1.4252    41.8002    14.7000    103.857     30.000 301441.000    120.000    34.0718   -20.0773   -20.6609   120.0962    -0.1480    -3.0001   -70.8256     0.0000     0.0000     0.0000     1.0000     5.0000   300.0000    10.4336    19.1477     1.0010    -2.9998     9.0000    10.0000     5.0000    14.0000    16.0000     5.0000    10.0000    16.0000    -0.0005     0.0005   159.4167   -41.1662     2.8432    56.5002     2.0000     1.0000     5.0008     0.000
     18     1.4250     0.0000     1.4249    41.5997    14.7000    103.975     33.000 301441.000    120.000    34.1322   -20.0773   -20.6980   120.0962    -0.1480    -3.0001   -70.6864     0.0000     0.0000     0.0000     1.0000     5.0000   300.0000    10.1434    19.4554     1.0010    -2.9998     9.0000    10.0000     5.0000    14.0000    16.0000     5.0000    10.0000    16.0000    -0.0005     0.0005   159.4167   -41.1662     2.8430    56.2997     2.0000     1.0000     5.0007     0.000
     19     1.4250     0.0000     1.4251    41.3995    14.7000    104.567     65.000 301441.000    120.000    34.1930   -20.0773   -20.7353   120.0962    -0.1480    -3.0001   -70.5471     0.0000     0.0000     0.0000     1.0000     5.0000   300.0000     9.8575    19.7670     1.0010    -2.9998     9.0000    10.0000     5.0000    14.0000    16.0000     5.0000    10.0000    16.0000    -0.0005     0.0005   159.4167   -41.1662     2.8431    56.0995     2.0000     1.0000     5.0007     0.000
     20     1.4250     0.0000     1.4250    41.2008    14.7000    104.871     96.000 301441.000    120.000    34.2541   -20.0773   -20.7726   120.0962    -0.1480    -3.0001   -70.4076     0.0000     0.0000     0.0000     1.0000     5.0000   300.0000     9.5750    20.0672     1.0010    -2.9998     9.0000    10.0000     5.0000    14.0000    16.0000     5.0000    10.0000    16.0000    -0.0005     0.0005   159.4167   -41.1662     2.8431    55.9008     2.0000     1.0000     5.0007     0.000
     21     1.4250     0.0000     1.4252    41.0007    14.7000    105.311    139.000 301441.000    120.000    34.3156   -20.0773   -20.8103   120.0962    -0.1480    -3.0001   -70.2678     0.0000     0.0000     0.0000     1.0000     5.0000   300.0000     9.2957    20.3720     1.0010    -2.9998     9.0000    10.0000     5.0000    14.0000    16.0000     5.0000    10.0000    16.0000    -0.0005     0.0005   159.4167   -41.1662     2.8432    55.7007     2.0000     1.0000     4.9991     0.000
     22     1.4250     0.0000     1.4250    40.7990    14.7000    105.741     96.000 301441.000    120.000    34.3774   -20.0773   -20.8484   120.0962    -0.1480    -3.0001   -70.1279     0.0000     0.0000     0.0000     1.0000     5.0000   300.0000     9.0209    20.6639     1.0010    -2.9998     9.0000    10.0000     5.0000    14.0000    16.0000     5.0000    10.0000    16.0000    -0.0005     0.0005   159.4167   -41.1662     2.8430    55.4990     2.0000     1.0000     5.0010     0.000
     23     1.4250     0.0000     1.4251    40.6006    14.7000    106.190     75.000 301441.000    120.000    34.4395   -20.0773   -20.8862   120.0962    -0.1480    -3.0001   -69.9878     0.0000     0.0000     0.0000     1.0000     5.0000   300.0000     8.7487    20.9599     1.0010    -2.9998     9.0000    10.0000     5.0000    14.0000    16.0000     5.0000    10.0000    16.0000    -0.0005     0.0005   159.4167   -41.1662     2.8432    55.3006     2.0000     1.0000     4.9997     0.000
     24     1.4250     0.0000     1.4249    40.3994    14.7000    106.500     36.000 301441.000    120.000    34.5019   -20.0773   -20.9248   120.0962    -0.1480    -3.0001   -69.8474     0.0000     0.0000     0.0000     1.0000     5.0000   300.0000     8.4798    21.2464     1.0010    -2.9998     9.0000    10.0000     5.0000    14.0000    16.0000     5.0000    10.0000    16.0000    -0.0005     0.0005   159.4167   -41.1662     2.8430    55.0994     2.0000     1.0000     5.0006     0.000
     25     1.4250     0.0000     1.4251    40.2008    14.7000    106.844     36.000 301441.000    120.000    34.5647   -20.0773   -20.9630   120.0962    -0.1480    -3.0001   -69.7069     0.0000     0.0000     0.0000     1.0000     5.0000   300.0000     8.2138    21.5357     1.0010    -2.9998     9.0000    10.0000     5.0000    14.0000    16.0000     5.0000    10.0000    16.0000    -0.0005     0.0005   159.4167   -41.1662     2.8432    54.9008     2.0000     1.0000     5.0000     0.000
     26     1.4250     0.0000     1.4250    39.9993    14.7000    107.171     39.000 301441.000    120.000    34.6278   -20.0773   -21.0020   120.0962    -0.1480    -3.0001   -69.5662     0.0000     0.0000     0.0000     1.0000     5.0000   300.0000     7.9505    21.8182     1.0010    -2.9998     9.0000    10.0000     5.0000    14.0000    16.0000     5.0000    10.0000    16.0000    -0.0005     0.0005   159.4167   -41.1662     2.8431    54.6993     2.0000     1.0000     4.9999     0.000
     27     1.4250     0.0000     1.4250    39.7994    14.7000    107.364     26.000 301441.000    120.000    34.6913   -20.0773   -21.0409   120.0962    -0.1480    -3.0001   -69.4252     0.0000     0.0000     0.0000     1.0000     5.0000   300.0000     7.6905    22.0983     1.0010    -2.9998     9.0000    10.0000     5.0000    14.0000    16.0000     5.0000    10.0000    16.0000    -0.0005     0.0005   159.4167   -41.1662     2.8431    54.4994     2.0000     1.0000     5.0010     0.000
     28     1.4250     0.0000     1.4251    39.6006    14.7000    107.691     24.000 301441.000    120.000    34.7551   -20.0773   -21.0799   120.0962    -0.1480    -3.0001   -69.2841     0.0000     0.0000     0.0000     1.0000     5.0000   300.0000     7.4329    22.3777     1.0010    -2.9998     9.0000    10.0000     5.0000    14.0000    16.0000     5.0000    10.0000    16.0000    -0.0005     0.0005   159.4167   -41.1662     2.8432    54.3006     2.0000     1.0000     4.9997     0.000
     29     1.4250     0.0000     1.4250    39.3997    14.7000    107.765     25.000 301441.000    120.000    34.8193   -20.0773   -21.1194   120.0962    -0.1480    -3.0001   -69.1427     0.0000     0.0000     0.0000     1.0000     5.0000   300.0000     7.1778    22.6509     1.0010    -2.9998     9.0000    10.0000     5.0000    14.0000    16.0000     5.0000    10.0000    16.0000    -0.0005     0.0005   159.4167   -41.1662     2.8431    54.0998     2.0000     1.0000     4.9994     0.000
     30     1.4250     0.0000     1.4251    39.1998    14.7000    108.058     30.000 301441.000    120.000    34.8839   -20.0773   -21.1590   120.0962    -0.1480    -3.0001   -69.0012     0.0000     0.0000     0.0000     1.0000     5.0000   300.0000     6.9253    22.9249     1.0010    -2.9998     9.0000    10.0000     5.0000    14.0000    16.0000     5.0000    10.0000    16.0000    -0.0005     0.0005   159.4167   -41.1662     2.8431    53.8998     2.0000     1.0000     5.0012     0.000
     31     1.4250     0.0000     1.4251    38.9999    14.7000    107.775     32.000 301441.000    120.000    34.9487   -20.0773   -21.1988   120.0962    -0.1480    -3.0001   -68.8594     0.0000     0.0000     0.0000     1.0000     5.0000   300.0000     6.6750    23.1950     1.0010    -2.9998     9.0000    10.0000     5.0000    14.0000    16.0000     5.0000    10.0000    16.0000    -0.0005     0.0005   159.4167   -41.1662     2.8431    53.6999     2.0000     1.0000     4.9995     0.000
     32     1.4250     0.0000     1.4250    38.8005    14.7000    108.268     22.000 301441.000    120.000    35.0140   -20.0773   -21.2387   120.0962    -0.1480    -3.0001   -68.7174     0.0000     0.0000     0.0000     1.0000     5.0000   300.0000     6.4269    23.4617     1.0010    -2.9998     9.0000    10.0000     5.0000    14.0000    16.0000     5.0000    10.0000    16.0000    -0.0005     0.0005   159.4167   -41.1662     2.8431    53.5005     2.0000     1.0000     5.0009     0.000
     33     1.4250     0.0000     1.4250    38.6005    14.7000    107.762     30.000 301441.000    120.000    35.0797   -20.0773   -21.2790   120.0962    -0.1480    -3.0001   -68.5753     0.0000     0.0000     0.0000     1.0000     5.0000   300.0000     6.1814    23.7273     1.0010    -2.9998     9.0000    10.0000     5.0000    14.0000    16.0000     5.0000    10.0000    16.0000    -0.0005     0.0005   159.4167   -41.1662     2.8431    53.3005     2.0000     1.0000     4.9999     0.000
     34     1.4250     0.0000     1.4251    38.3994    14.7000    107.973     22.000 301441.000    120.000    35.1456   -20.0773   -21.3197   120.0962    -0.1480    -3.0001   -68.4329     0.0000     0.0000     0.0000     1.0000     5.0000   300.0000     5.9383    23.9911     1.0010    -2.9998     9.0000    10.0000     5.0000    14.0000    16.0000     5.0000    10.0000    16.0000    -0.0005     0.0005   159.4167   -41.1662     2.8431    53.0994     2.0000     1.0000     4.9987     0.000
     35     1.4250     0.0000     1.4250    38.2010    14.7000    107.606     27.000 301441.000    120.000    35.2120   -20.0773   -21.3601   120.0962    -0.1480    -3.0001   -68.2903     0.0000     0.0000     0.0000     1.0000     5.0000   300.0000     5.6963    24.2507     1.0010    -2.9998     9.0000    10.0000     5.0000    14.0000    16.0000     5.0000    10.0000    16.0000    -0.0005     0.0005   159.4167   -41.1662     2.8431    52.9010     2.0000     1.0000     4.9993     0.000
     36     1.4250     0.0000     1.4250    37.9994    14.7000    107.351     41.000 301441.000    120.000    35.2788   -20.0773   -21.4014   120.0962    -0.1480    -3.0001   -68.1475     0.0000     0.0000     0.0000     1.0000     5.0000   300.0000     5.4574    24.5096     1.0010    -2.9998     9.0000    10.0000     5.0000    14.0000    16.0000     5.0000    10.0000    16.0000    -0.0005     0.0005   159.4167   -41.1662     2.8431    52.6994     2.0000     1.0000     4.9990     0.000
     37     1.4250     0.0000     1.4251    37.7992    14.7000    107.409     27.000 301441.000    120.000    35.3459   -20.0773   -21.4427   120.0962    -0.1480    -3.0001   -68.0045     0.0000     0.0000     0.0000     1.0000     5.0000   300.0000     5.2195    24.7678     1.0010    -2.9998     9.0000    10.0000     5.0000    14.0000    16.0000     5.0000    10.0000    16.0000    -0.0005     0.0005   159.4167   -41.1662     2.8431    52.4992     2.0000     1.0000     5.0001     0.000
