# scan = 65
# date = 9/11/2024
# time = 11:00:33 AM
# proposal = 34735
# experiment = Magnons and paramagnon coupling in MnTe
# experiment_number = 813
# command = scan h 1.325 k 0.0 l 1.325 e 43.6 40.2 0.2 ef 14.7 preset mcu 120
# builtin_command = scan h 1.325 k 0.0 l 1.325 e 43.6 40.2 0.2 ef 14.7 preset mcu 120
# users = Benjamin Frandsen, Songxue Chi, George Yumnam, Huibo Cao, Michael Manley, Raphael Hermann, Eleanor Clements
# local_contact = Eleanor Clements
# scan_title = H0L scans along (101) to (1.5, 0, 1.5) at H/L = 1.325, mcu = 120, E = 43.6 to 40.2 mev
# monochromator = PG002
# analyzer = Pg002
# sense = -+-
# collimation = 48-40-40-120
# samplename = MnTe
# sampletype = crystal
# samplemosaic = 30.000000
# latticeconstants = 4.128474,4.128474,6.651507,90.000000,90.000000,120.000000
# ubmatrix = -0.000328,-0.004396,-0.150319,-0.279308,-0.152332,0.000314,-0.014647,0.234528,-0.002614
# mode = 0
# plane_normal = -0.017470,-0.052341,0.998476
# ubconf = UB09Sep2024_43441PM.ini
# preset_type = normal 
# preset_channel = mcu
# preset_value = 120.000000
# def_x = e
# def_y = detector
# col_headers = 
#   Pt.          h          k          l          e         ef       time   detector    monitor        mcu focal_length         m1         m2   mcrystal       marc     mtrans     mfocus       ampl         dc       freq     output       temp     temp_2         s1         s2        sgl        sgu        bbb        bbl        bbr        bbt        bab        bal        bar        bat        stl        stu         a1         a2          q         ei   ampl_out output_state        vti     sample
      1     1.3251     0.0000     1.3249    43.6048    14.7000    104.148   2252.000 301441.000    120.000    33.5417   -20.0773   -20.3352   120.0962    -0.1480    -3.0001   -72.0695     0.0000     0.0000     0.0000     1.0000     5.0000   300.0000    26.4649     1.8436     1.0010    -2.9998     9.0000    10.0000     5.0000    14.0000    16.0000     5.0000    10.0000    16.0000    -0.0005     0.0005   159.4164   -41.1662     2.6438    58.3048     2.0000     1.0000     4.9991     0.000
      2     1.3250     0.0000     1.3250    43.3999    14.7000    104.001     23.000 301441.000    120.000    33.5993   -20.0773   -20.3714   120.0962    -0.1480    -3.0001   -71.9320     0.0000     0.0000     0.0000     1.0000     5.0000   300.0000    24.4764     3.8218     1.0010    -2.9998     9.0000    10.0000     5.0000    14.0000    16.0000     5.0000    10.0000    16.0000    -0.0005     0.0005   159.4164   -41.1662     2.6436    58.0999     2.0000     1.0000     4.9990     0.000
      3     1.3250     0.0000     1.3250    43.1997    14.7000    103.821      8.000 301441.000    120.000    33.6573   -20.0773   -20.4069   120.0962    -0.1480    -3.0001   -71.7944     0.0000     0.0000     0.0000     1.0000     5.0000   300.0000    23.2075     5.0798     1.0010    -2.9998     9.0000    10.0000     5.0000    14.0000    16.0000     5.0000    10.0000    16.0000    -0.0005     0.0005   159.4164   -41.1662     2.6436    57.8997     2.0000     1.0000     5.0001     0.000
      4     1.3250     0.0000     1.3250    43.0005    14.7000    103.937     16.000 301441.000    120.000    33.7156   -20.0773   -20.4425   120.0962    -0.1480    -3.0001   -71.6566     0.0000     0.0000     0.0000     1.0000     5.0000   300.0000    22.1936     6.0871     1.0010    -2.9998     9.0000    10.0000     5.0000    14.0000    16.0000     5.0000    10.0000    16.0000    -0.0005     0.0005   159.4164   -41.1662     2.6436    57.7005     2.0000     1.0000     5.0007     0.000
      5     1.3249     0.0000     1.3251    42.7989    14.7000    103.818     18.000 301441.000    120.000    33.7742   -20.0773   -20.4787   120.0962    -0.1480    -3.0001   -71.5185     0.0000     0.0000     0.0000     1.0000     5.0000   300.0000    21.3229     6.9537     1.0010    -2.9998     9.0000    10.0000     5.0000    14.0000    16.0000     5.0000    10.0000    16.0000    -0.0005     0.0005   159.4164   -41.1662     2.6436    57.4989     2.0000     1.0000     4.9997     0.000
      6     1.3250     0.0000     1.3252    42.6013    14.7000    104.131     15.000 301441.000    120.000    33.8331   -20.0773   -20.5144   120.0962    -0.1480    -3.0001   -71.3803     0.0000     0.0000     0.0000     1.0000     5.0000   300.0000    20.5476     7.7235     1.0010    -2.9998     9.0000    10.0000     5.0000    14.0000    16.0000     5.0000    10.0000    16.0000    -0.0005     0.0005   159.4164   -41.1662     2.6437    57.3013     2.0000     1.0000     4.9996     0.000
      7     1.3250     0.0000     1.3250    42.3993    14.7000    103.874      9.000 301441.000    120.000    33.8923   -20.0773   -20.5510   120.0962    -0.1480    -3.0001   -71.2419     0.0000     0.0000     0.0000     1.0000     5.0000   300.0000    19.8410     8.4216     1.0010    -2.9998     9.0000    10.0000     5.0000    14.0000    16.0000     5.0000    10.0000    16.0000    -0.0005     0.0005   159.4164   -41.1662     2.6435    57.0993     2.0000     1.0000     4.9995     0.000
      8     1.3250     0.0000     1.3250    42.1993    14.7000    103.919     15.000 301441.000    120.000    33.9518   -20.0773   -20.5875   120.0962    -0.1480    -3.0001   -71.1034     0.0000     0.0000     0.0000     1.0000     5.0000   300.0000    19.1880     9.0688     1.0010    -2.9998     9.0000    10.0000     5.0000    14.0000    16.0000     5.0000    10.0000    16.0000    -0.0005     0.0005   159.4164   -41.1662     2.6435    56.8993     2.0000     1.0000     4.9984     0.000
      9     1.3250     0.0000     1.3250    42.0008    14.7000    104.258     14.000 301441.000    120.000    34.0116   -20.0773   -20.6239   120.0962    -0.1480    -3.0001   -70.9646     0.0000     0.0000     0.0000     1.0000     5.0000   300.0000    18.5766     9.6751     1.0010    -2.9998     9.0000    10.0000     5.0000    14.0000    16.0000     5.0000    10.0000    16.0000    -0.0005     0.0005   159.4164   -41.1662     2.6436    56.7008     2.0000     1.0000     5.0009     0.000
     10     1.3250     0.0000     1.3250    41.8000    14.7000    104.321     10.000 301441.000    120.000    34.0718   -20.0773   -20.6609   120.0962    -0.1480    -3.0001   -70.8256     0.0000     0.0000     0.0000     1.0000     5.0000   300.0000    18.0004    10.2475     1.0010    -2.9998     9.0000    10.0000     5.0000    14.0000    16.0000     5.0000    10.0000    16.0000    -0.0005     0.0005   159.4164   -41.1662     2.6436    56.5000     2.0000     1.0000     4.9992     0.000
     11     1.3250     0.0000     1.3254    41.5997    14.7000    104.281     13.000 301441.000    120.000    34.1322   -20.0773   -20.6980   120.0962    -0.1480    -3.0001   -70.6864     0.0000     0.0000     0.0000     1.0000     5.0000   300.0000    17.4535    10.7991     1.0010    -2.9998     9.0000    10.0000     5.0000    14.0000    16.0000     5.0000    10.0000    16.0000    -0.0005     0.0005   159.4164   -41.1662     2.6437    56.2997     2.0000     1.0000     4.9994     0.000
     12     1.3250     0.0000     1.3251    41.3995    14.7000    104.635     13.000 301441.000    120.000    34.1930   -20.0773   -20.7353   120.0962    -0.1480    -3.0001   -70.5471     0.0000     0.0000     0.0000     1.0000     5.0000   300.0000    16.9310    11.3103     1.0010    -2.9998     9.0000    10.0000     5.0000    14.0000    16.0000     5.0000    10.0000    16.0000    -0.0005     0.0005   159.4164   -41.1662     2.6436    56.0995     2.0000     1.0000     4.9985     0.000
     13     1.3250     0.0000     1.3252    41.2008    14.7000    105.057     17.000 301441.000    120.000    34.2541   -20.0773   -20.7726   120.0962    -0.1480    -3.0001   -70.4076     0.0000     0.0000     0.0000     1.0000     5.0000   300.0000    16.4309    11.8084     1.0010    -2.9998     9.0000    10.0000     5.0000    14.0000    16.0000     5.0000    10.0000    16.0000    -0.0005     0.0005   159.4164   -41.1662     2.6437    55.9008     2.0000     1.0000     5.0008     0.000
     14     1.3250     0.0000     1.3250    41.0009    14.7000    105.656     15.000 301441.000    120.000    34.3156   -20.0773   -20.8102   120.0962    -0.1480    -3.0001   -70.2678     0.0000     0.0000     0.0000     1.0000     5.0000   300.0000    15.9499    12.2828     1.0010    -2.9998     9.0000    10.0000     5.0000    14.0000    16.0000     5.0000    10.0000    16.0000    -0.0005     0.0005   159.4164   -41.1662     2.6436    55.7009     2.0000     1.0000     4.9990     0.000
     15     1.3250     0.0000     1.3251    40.7988    14.7000    105.870     13.000 301441.000    120.000    34.3774   -20.0773   -20.8485   120.0962    -0.1480    -3.0001   -70.1279     0.0000     0.0000     0.0000     1.0000     5.0000   300.0000    15.4853    12.7468     1.0010    -2.9998     9.0000    10.0000     5.0000    14.0000    16.0000     5.0000    10.0000    16.0000    -0.0005     0.0005   159.4164   -41.1662     2.6436    55.4988     2.0000     1.0000     4.9997     0.000
     16     1.3250     0.0000     1.3252    40.6006    14.7000    106.365     19.000 301441.000    120.000    34.4395   -20.0773   -20.8862   120.0962    -0.1480    -3.0001   -69.9878     0.0000     0.0000     0.0000     1.0000     5.0000   300.0000    15.0359    13.1926     1.0010    -2.9998     9.0000    10.0000     5.0000    14.0000    16.0000     5.0000    10.0000    16.0000    -0.0005     0.0005   159.4164   -41.1662     2.6437    55.3006     2.0000     1.0000     5.0000     0.000
     17     1.3250     0.0000     1.3250    40.3994    14.7000    106.794     19.000 301441.000    120.000    34.5019   -20.0773   -20.9248   120.0962    -0.1480    -3.0001   -69.8474     0.0000     0.0000     0.0000     1.0000     5.0000   300.0000    14.6007    13.6216     1.0010    -2.9998     9.0000    10.0000     5.0000    14.0000    16.0000     5.0000    10.0000    16.0000    -0.0005     0.0005   159.4164   -41.1662     2.6436    55.0994     2.0000     1.0000     5.0005     0.000
     18     1.3250     0.0000     1.3250    40.2008    14.7000    106.968     15.000 301441.000    120.000    34.5647   -20.0773   -20.9630   120.0962    -0.1480    -3.0001   -69.7069     0.0000     0.0000     0.0000     1.0000     5.0000   300.0000    14.1777    14.0397     1.0010    -2.9998     9.0000    10.0000     5.0000    14.0000    16.0000     5.0000    10.0000    16.0000    -0.0005     0.0005   159.4164   -41.1662     2.6436    54.9008     2.0000     1.0000     4.9992     0.000
# Sum of Counts = 2504
# Center of Mass = 43.421174+/-1.227221
# Full Width Half-Maximum = 1.276534+/-0.664480
# 11:37:08 AM  9/11/2024   scan completed.
