# scan = 61
# date = 9/11/2024
# time = 4:26:03 AM
# proposal = 34735
# experiment = Magnons and paramagnon coupling in MnTe
# experiment_number = 813
# command = scan h 1.45 k 0.0 l 1.45 e 32.75 9 0.25 ef 14.7 preset mcu 60
# builtin_command = scan h 1.45 k 0.0 l 1.45 e 32.75 9 0.25 ef 14.7 preset mcu 60
# users = Benjamin Frandsen, Songxue Chi, George Yumnam, Huibo Cao, Michael Manley, Raphael Hermann, Eleanor Clements
# local_contact = Eleanor Clements
# scan_title = H0L scans along (101) to (1.5, 0, 1.5) at H/L = 1.45, mcu = 60, E = 33 to 5 mev
# monochromator = PG002
# analyzer = Pg002
# sense = -+-
# collimation = 48-40-40-120
# samplename = MnTe
# sampletype = crystal
# samplemosaic = 30.000000
# latticeconstants = 4.128474,4.128474,6.651507,90.000000,90.000000,120.000000
# ubmatrix = -0.000328,-0.004396,-0.150319,-0.279308,-0.152332,0.000314,-0.014647,0.234528,-0.002614
# mode = 0
# plane_normal = -0.017470,-0.052341,0.998476
# ubconf = UB09Sep2024_43441PM.ini
# preset_type = normal
# preset_channel = mcu
# preset_value = 60.000000
# def_x = e
# def_y = detector
# col_headers =
#   Pt.          h          k          l          e         ef       time   detector    monitor        mcu focal_length         m1         m2   mcrystal       marc     mtrans     mfocus       ampl         dc       freq     output       temp     temp_2         s1         s2        sgl        sgu        bbb        bbl        bbr        bbt        bab        bal        bar        bat        stl        stu         a1         a2          q         ei   ampl_out output_state        vti     sample
      1     1.4500     0.0000     1.4501    32.7489    14.7000     45.710      4.000 150721.000     60.000    37.1793   -20.0773   -22.5692   120.0962    -0.1480    -3.0001   -64.3182     0.0000     0.0000     0.0000     1.0000     5.0000   300.0000    -0.8511    31.9755     1.0010    -2.9998     9.0000    10.0000     5.0000    14.0000    16.0000     5.0000    10.0000    16.0000    -0.0005     0.0005   159.4164   -41.1662     2.8930    47.4489     2.0000     1.0000     5.0012     0.000
      2     1.4500     0.0000     1.4500    32.5008    14.7000     45.813      3.000 150721.000     60.000    37.2776   -20.0773   -22.6292   120.0962    -0.1480    -3.0001   -64.1317     0.0000     0.0000     0.0000     1.0000     5.0000   300.0000    -1.0924    32.2426     1.0010    -2.9998     9.0000    10.0000     5.0000    14.0000    16.0000     5.0000    10.0000    16.0000    -0.0005     0.0005   159.4164   -41.1662     2.8930    47.2008     2.0000     1.0000     5.0008     0.000
      3     1.4500     0.0000     1.4500    32.2499    14.7000     45.624      9.000 150721.000     60.000    37.3767   -20.0773   -22.6904   120.0962    -0.1480    -3.0001   -63.9448     0.0000     0.0000     0.0000     1.0000     5.0000   300.0000    -1.3324    32.5119     1.0010    -2.9998     9.0000    10.0000     5.0000    14.0000    16.0000     5.0000    10.0000    16.0000    -0.0005     0.0005   159.4164   -41.1662     2.8930    46.9499     2.0000     1.0000     5.0004     0.000
      4     1.4500     0.0000     1.4501    31.9998    14.7000     45.407      4.000 150721.000     60.000    37.4766   -20.0773   -22.7519   120.0962    -0.1480    -3.0001   -63.7576     0.0000     0.0000     0.0000     1.0000     5.0000   300.0000    -1.5711    32.7802     1.0010    -2.9998     9.0000    10.0000     5.0000    14.0000    16.0000     5.0000    10.0000    16.0000    -0.0005     0.0005   159.4164   -41.1662     2.8930    46.6998     2.0000     1.0000     5.0014     0.000
      5     1.4500     0.0000     1.4500    31.7500    14.7000     45.407     10.000 150721.000     60.000    37.5773   -20.0773   -22.8138   120.0962    -0.1480    -3.0001   -63.5699     0.0000     0.0000     0.0000     1.0000     5.0000   300.0000    -1.8089    33.0452     1.0010    -2.9998     9.0000    10.0000     5.0000    14.0000    16.0000     5.0000    10.0000    16.0000    -0.0005     0.0005   159.4164   -41.1662     2.8930    46.4500     2.0000     1.0000     4.9998     0.000
      6     1.4500     0.0000     1.4501    31.5005    14.7000     45.213      6.000 150721.000     60.000    37.6789   -20.0773   -22.8762   120.0962    -0.1480    -3.0001   -63.3819     0.0000     0.0000     0.0000     1.0000     5.0000   300.0000    -2.0448    33.3111     1.0010    -2.9998     9.0000    10.0000     5.0000    14.0000    16.0000     5.0000    10.0000    16.0000    -0.0005     0.0005   159.4164   -41.1662     2.8930    46.2005     2.0000     1.0000     4.9997     0.000
      7     1.4500     0.0000     1.4501    31.2496    14.7000     45.080      6.000 150721.000     60.000    37.7812   -20.0773   -22.9394   120.0962    -0.1480    -3.0001   -63.1934     0.0000     0.0000     0.0000     1.0000     5.0000   300.0000    -2.2806    33.5763     1.0010    -2.9998     9.0000    10.0000     5.0000    14.0000    16.0000     5.0000    10.0000    16.0000    -0.0005     0.0005   159.4164   -41.1662     2.8930    45.9496     2.0000     1.0000     5.0003     0.000
      8     1.4500     0.0000     1.4500    30.9994    14.7000     44.959      8.000 150721.000     60.000    37.8844   -20.0773   -23.0029   120.0962    -0.1480    -3.0001   -63.0045     0.0000     0.0000     0.0000     1.0000     5.0000   300.0000    -2.5148    33.8373     1.0010    -2.9998     9.0000    10.0000     5.0000    14.0000    16.0000     5.0000    10.0000    16.0000    -0.0005     0.0005   159.4164   -41.1662     2.8930    45.6994     2.0000     1.0000     4.9999     0.000
      9     1.4500     0.0000     1.4500    30.7505    14.7000     44.639     11.000 150721.000     60.000    37.9885   -20.0773   -23.0667   120.0962    -0.1480    -3.0001   -62.8152     0.0000     0.0000     0.0000     1.0000     5.0000   300.0000    -2.7483    34.0989     1.0010    -2.9998     9.0000    10.0000     5.0000    14.0000    16.0000     5.0000    10.0000    16.0000    -0.0005     0.0005   159.4164   -41.1662     2.8930    45.4505     2.0000     1.0000     4.9996     0.000
     10     1.4500     0.0000     1.4501    30.4999    14.7000     44.287     10.000 150721.000     60.000    38.0934   -20.0773   -23.1314   120.0962    -0.1480    -3.0001   -62.6255     0.0000     0.0000     0.0000     1.0000     5.0000   300.0000    -2.9802    34.3613     1.0010    -2.9998     9.0000    10.0000     5.0000    14.0000    16.0000     5.0000    10.0000    16.0000    -0.0005     0.0005   159.4164   -41.1662     2.8930    45.1999     2.0000     1.0000     5.0010     0.000
     11     1.4500     0.0000     1.4500    30.2510    14.7000     44.098      8.000 150721.000     60.000    38.1992   -20.0773   -23.1963   120.0962    -0.1480    -3.0001   -62.4354     0.0000     0.0000     0.0000     1.0000     5.0000   300.0000    -3.2116    34.6198     1.0010    -2.9998     9.0000    10.0000     5.0000    14.0000    16.0000     5.0000    10.0000    16.0000    -0.0005     0.0005   159.4164   -41.1662     2.8930    44.9510     2.0000     1.0000     4.9999     0.000
     12     1.4500     0.0000     1.4500    29.9993    14.7000     43.908      5.000 150721.000     60.000    38.3059   -20.0773   -23.2624   120.0962    -0.1480    -3.0001   -62.2448     0.0000     0.0000     0.0000     1.0000     5.0000   300.0000    -3.4420    34.8796     1.0010    -2.9998     9.0000    10.0000     5.0000    14.0000    16.0000     5.0000    10.0000    16.0000    -0.0005     0.0005   159.4164   -41.1662     2.8930    44.6993     2.0000     1.0000     5.0004     0.000
     13     1.4500     0.0000     1.4500    29.7495    14.7000     43.603      7.000 150721.000     60.000    38.4134   -20.0773   -23.3286   120.0962    -0.1480    -3.0001   -62.0538     0.0000     0.0000     0.0000     1.0000     5.0000   300.0000    -3.6713    35.1381     1.0010    -2.9998     9.0000    10.0000     5.0000    14.0000    16.0000     5.0000    10.0000    16.0000    -0.0005     0.0005   159.4164   -41.1662     2.8930    44.4495     2.0000     1.0000     5.0004     0.000
     14     1.4500     0.0000     1.4501    29.5002    14.7000     43.673      9.000 150721.000     60.000    38.5219   -20.0773   -23.3952   120.0962    -0.1480    -3.0001   -61.8623     0.0000     0.0000     0.0000     1.0000     5.0000   300.0000    -3.8998    35.3962     1.0010    -2.9998     9.0000    10.0000     5.0000    14.0000    16.0000     5.0000    10.0000    16.0000    -0.0005     0.0005   159.4164   -41.1662     2.8930    44.2002     2.0000     1.0000     4.9992     0.000
     15     1.4500     0.0000     1.4500    29.2505    14.7000     43.540      9.000 150721.000     60.000    38.6313   -20.0773   -23.4625   120.0962    -0.1480    -3.0001   -61.6704     0.0000     0.0000     0.0000     1.0000     5.0000   300.0000    -4.1274    35.6511     1.0010    -2.9998     9.0000    10.0000     5.0000    14.0000    16.0000     5.0000    10.0000    16.0000    -0.0005     0.0005   159.4164   -41.1662     2.8930    43.9505     2.0000     1.0000     5.0004     0.000
     16     1.4500     0.0000     1.4500    28.9996    14.7000     43.519      4.000 150721.000     60.000    38.7417   -20.0773   -23.5307   120.0962    -0.1480    -3.0001   -61.4781     0.0000     0.0000     0.0000     1.0000     5.0000   300.0000    -4.3545    35.9074     1.0010    -2.9998     9.0000    10.0000     5.0000    14.0000    16.0000     5.0000    10.0000    16.0000    -0.0005     0.0005   159.4164   -41.1662     2.8930    43.6996     2.0000     1.0000     5.0000     0.000
     17     1.4500     0.0000     1.4501    28.7500    14.7000     43.249     11.000 150721.000     60.000    38.8530   -20.0773   -23.5992   120.0962    -0.1480    -3.0001   -61.2854     0.0000     0.0000     0.0000     1.0000     5.0000   300.0000    -4.5797    36.1647     1.0010    -2.9998     9.0000    10.0000     5.0000    14.0000    16.0000     5.0000    10.0000    16.0000    -0.0005     0.0005   159.4164   -41.1662     2.8931    43.4500     2.0000     1.0000     5.0004     0.000
     18     1.4500     0.0000     1.4501    28.5001    14.7000     43.306      2.000 150721.000     60.000    38.9652   -20.0773   -23.6684   120.0962    -0.1480    -3.0001   -61.0922     0.0000     0.0000     0.0000     1.0000     5.0000   300.0000    -4.8053    36.4184     1.0010    -2.9998     9.0000    10.0000     5.0000    14.0000    16.0000     5.0000    10.0000    16.0000    -0.0005     0.0005   159.4164   -41.1662     2.8930    43.2001     2.0000     1.0000     5.0005     0.000
     19     1.4500     0.0000     1.4500    28.2501    14.7000     43.218      1.000 150721.000     60.000    39.0785   -20.0773   -23.7381   120.0962    -0.1480    -3.0001   -60.8985     0.0000     0.0000     0.0000     1.0000     5.0000   300.0000    -5.0296    36.6692     1.0010    -2.9998     9.0000    10.0000     5.0000    14.0000    16.0000     5.0000    10.0000    16.0000    -0.0005     0.0005   159.4164   -41.1662     2.8929    42.9501     2.0000     1.0000     4.9992     0.000
     20     1.4500     0.0000     1.4500    28.0001    14.7000     43.346      5.000 150721.000     60.000    39.1927   -20.0773   -23.8085   120.0962    -0.1480    -3.0001   -60.7044     0.0000     0.0000     0.0000     1.0000     5.0000   300.0000    -5.2534    36.9247     1.0010    -2.9998     9.0000    10.0000     5.0000    14.0000    16.0000     5.0000    10.0000    16.0000    -0.0005     0.0005   159.4164   -41.1662     2.8930    42.7001     2.0000     1.0000     4.9985     0.000
     21     1.4500     0.0000     1.4501    27.7504    14.7000     43.024      9.000 150721.000     60.000    39.3079   -20.0773   -23.8795   120.0962    -0.1480    -3.0001   -60.5098     0.0000     0.0000     0.0000     1.0000     5.0000   300.0000    -5.4757    37.1783     1.0010    -2.9998     9.0000    10.0000     5.0000    14.0000    16.0000     5.0000    10.0000    16.0000    -0.0005     0.0005   159.4164   -41.1662     2.8931    42.4504     2.0000     1.0000     5.0001     0.000
     22     1.4500     0.0000     1.4500    27.4996    14.7000     42.774      8.000 150721.000     60.000    39.4242   -20.0773   -23.9514   120.0962    -0.1480    -3.0001   -60.3147     0.0000     0.0000     0.0000     1.0000     5.0000   300.0000    -5.6982    37.4271     1.0010    -2.9998     9.0000    10.0000     5.0000    14.0000    16.0000     5.0000    10.0000    16.0000    -0.0005     0.0005   159.4164   -41.1662     2.8929    42.1996     2.0000     1.0000     4.9998     0.000
     23     1.4500     0.0000     1.4500    27.2498    14.7000     42.214      5.000 150721.000     60.000    39.5415   -20.0773   -24.0236   120.0962    -0.1480    -3.0001   -60.1192     0.0000     0.0000     0.0000     1.0000     5.0000   300.0000    -5.9196    37.6781     1.0010    -2.9998     9.0000    10.0000     5.0000    14.0000    16.0000     5.0000    10.0000    16.0000    -0.0005     0.0005   159.4164   -41.1662     2.8929    41.9498     2.0000     1.0000     4.9993     0.000
     24     1.4500     0.0000     1.4501    27.0008    14.7000     41.844      4.000 150721.000     60.000    39.6598   -20.0773   -24.0963   120.0962    -0.1480    -3.0001   -59.9232     0.0000     0.0000     0.0000     1.0000     5.0000   300.0000    -6.1400    37.9310     1.0010    -2.9998     9.0000    10.0000     5.0000    14.0000    16.0000     5.0000    10.0000    16.0000    -0.0005     0.0005   159.4164   -41.1662     2.8931    41.7008     2.0000     1.0000     5.0003     0.000
     25     1.4500     0.0000     1.4501    26.7501    14.7000     41.343      7.000 150721.000     60.000    39.7792   -20.0773   -24.1702   120.0962    -0.1480    -3.0001   -59.7267     0.0000     0.0000     0.0000     1.0000     5.0000   300.0000    -6.3604    38.1808     1.0010    -2.9998     9.0000    10.0000     5.0000    14.0000    16.0000     5.0000    10.0000    16.0000    -0.0005     0.0005   159.4164   -41.1662     2.8931    41.4501     2.0000     1.0000     5.0008     0.000
     26     1.4500     0.0000     1.4500    26.4993    14.7000     40.897      5.000 150721.000     60.000    39.8998   -20.0773   -24.2448   120.0962    -0.1480    -3.0001   -59.5297     0.0000     0.0000     0.0000     1.0000     5.0000   300.0000    -6.5797    38.4281     1.0010    -2.9998     9.0000    10.0000     5.0000    14.0000    16.0000     5.0000    10.0000    16.0000    -0.0005     0.0005   159.4164   -41.1662     2.8929    41.1993     2.0000     1.0000     5.0001     0.000
     27     1.4500     0.0000     1.4500    26.2500    14.7000     40.311      1.000 150721.000     60.000    40.0214   -20.0773   -24.3196   120.0962    -0.1480    -3.0001   -59.3323     0.0000     0.0000     0.0000     1.0000     5.0000   300.0000    -6.7988    38.6769     1.0010    -2.9998     9.0000    10.0000     5.0000    14.0000    16.0000     5.0000    10.0000    16.0000    -0.0005     0.0005   159.4164   -41.1662     2.8929    40.9500     2.0000     1.0000     4.9996     0.000
     28     1.4500     0.0000     1.4501    26.0001    14.7000     39.982      4.000 150721.000     60.000    40.1441   -20.0773   -24.3953   120.0962    -0.1480    -3.0001   -59.1343     0.0000     0.0000     0.0000     1.0000     5.0000   300.0000    -7.0164    38.9269     1.0010    -2.9998     9.0000    10.0000     5.0000    14.0000    16.0000     5.0000    10.0000    16.0000    -0.0005     0.0005   159.4164   -41.1662     2.8930    40.7001     2.0000     1.0000     5.0003     0.000
     29     1.4500     0.0000     1.4501    25.7499    14.7000     39.816      8.000 150721.000     60.000    40.2680   -20.0773   -24.4718   120.0962    -0.1480    -3.0001   -58.9359     0.0000     0.0000     0.0000     1.0000     5.0000   300.0000    -7.2345    39.1767     1.0010    -2.9998     9.0000    10.0000     5.0000    14.0000    16.0000     5.0000    10.0000    16.0000    -0.0005     0.0005   159.4164   -41.1662     2.8931    40.4499     2.0000     1.0000     5.0010     0.000
     30     1.4500     0.0000     1.4500    25.5007    14.7000     39.519      8.000 150721.000     60.000    40.3930   -20.0773   -24.5487   120.0962    -0.1480    -3.0001   -58.7370     0.0000     0.0000     0.0000     1.0000     5.0000   300.0000    -7.4511    39.4214     1.0010    -2.9998     9.0000    10.0000     5.0000    14.0000    16.0000     5.0000    10.0000    16.0000    -0.0005     0.0005   159.4164   -41.1662     2.8930    40.2007     2.0000     1.0000     5.0015     0.000
     31     1.4500     0.0000     1.4500    25.2504    14.7000     39.230      7.000 150721.000     60.000    40.5192   -20.0773   -24.6266   120.0962    -0.1480    -3.0001   -58.5375     0.0000     0.0000     0.0000     1.0000     5.0000   300.0000    -7.6676    39.6684     1.0010    -2.9998     9.0000    10.0000     5.0000    14.0000    16.0000     5.0000    10.0000    16.0000    -0.0005     0.0005   159.4164   -41.1662     2.8930    39.9505     2.0000     1.0000     4.9993     0.000
     32     1.4500     0.0000     1.4500    24.9999    14.7000     39.079      5.000 150721.000     60.000    40.6465   -20.0773   -24.7054   120.0962    -0.1480    -3.0001   -58.3375     0.0000     0.0000     0.0000     1.0000     5.0000   300.0000    -7.8840    39.9157     1.0010    -2.9998     9.0000    10.0000     5.0000    14.0000    16.0000     5.0000    10.0000    16.0000    -0.0005     0.0005   159.4164   -41.1662     2.8930    39.6999     2.0000     1.0000     4.9996     0.000
     33     1.4500     0.0000     1.4501    24.7497    14.7000     39.078      2.000 150721.000     60.000    40.7751   -20.0773   -24.7849   120.0962    -0.1480    -3.0001   -58.1370     0.0000     0.0000     0.0000     1.0000     5.0000   300.0000    -8.0991    40.1641     1.0010    -2.9998     9.0000    10.0000     5.0000    14.0000    16.0000     5.0000    10.0000    16.0000    -0.0005     0.0005   159.4164   -41.1662     2.8931    39.4497     2.0000     1.0000     4.9990     0.000
     34     1.4500     0.0000     1.4500    24.5003    14.7000     39.001      4.000 150721.000     60.000    40.9049   -20.0773   -24.8649   120.0962    -0.1480    -3.0001   -57.9360     0.0000     0.0000     0.0000     1.0000     5.0000   300.0000    -8.3140    40.4080     1.0010    -2.9998     9.0000    10.0000     5.0000    14.0000    16.0000     5.0000    10.0000    16.0000    -0.0005     0.0005   159.4164   -41.1662     2.8930    39.2003     2.0000     1.0000     5.0002     0.000
     35     1.4500     0.0000     1.4500    24.2497    14.7000     39.296      5.000 150721.000     60.000    41.0360   -20.0773   -24.9460   120.0962    -0.1480    -3.0001   -57.7345     0.0000     0.0000     0.0000     1.0000     5.0000   300.0000    -8.5279    40.6525     1.0010    -2.9998     9.0000    10.0000     5.0000    14.0000    16.0000     5.0000    10.0000    16.0000    -0.0005     0.0005   159.4164   -41.1662     2.8930    38.9497     2.0000     1.0000     5.0001     0.000
     36     1.4500     0.0000     1.4500    24.0003    14.7000     39.497      7.000 150721.000     60.000    41.1683   -20.0773   -25.0276   120.0962    -0.1480    -3.0001   -57.5324     0.0000     0.0000     0.0000     1.0000     5.0000   300.0000    -8.7423    40.8975     1.0010    -2.9998     9.0000    10.0000     5.0000    14.0000    16.0000     5.0000    10.0000    16.0000    -0.0005     0.0005   159.4164   -41.1662     2.8930    38.7003     2.0000     1.0000     4.9999     0.000
     37     1.4500     0.0000     1.4500    23.7497    14.7000     39.601      5.000 150721.000     60.000    41.3020   -20.0773   -25.1103   120.0962    -0.1480    -3.0001   -57.3298     0.0000     0.0000     0.0000     1.0000     5.0000   300.0000    -8.9558    41.1430     1.0010    -2.9998     9.0000    10.0000     5.0000    14.0000    16.0000     5.0000    10.0000    16.0000    -0.0005     0.0005   159.4164   -41.1662     2.8930    38.4497     2.0000     1.0000     5.0004     0.000
