# scan = 83
# date = 9/11/2024
# time = 6:08:15 PM
# proposal = 34735
# experiment = Magnons and paramagnon coupling in MnTe
# experiment_number = 813
# command = scan h 1.075 k 0.0 l 1.075 e 33 4 0.25 ef 14.7 preset mcu 60
# builtin_command = scan h 1.075 k 0.0 l 1.075 e 33 4 0.25 ef 14.7 preset mcu 60
# users = Benjamin Frandsen, Songxue Chi, George Yumnam, Huibo Cao, Michael Manley, Raphael Hermann, Eleanor Clements
# local_contact = Eleanor Clements
# scan_title = check spurion (1.5,0,1.5) near 44.4 meV
# monochromator = PG002
# analyzer = Pg002
# sense = -+-
# collimation = 48-40-40-120
# samplename = MnTe
# sampletype = crystal
# samplemosaic = 30.000000
# latticeconstants = 4.128474,4.128474,6.651507,90.000000,90.000000,120.000000
# ubmatrix = -0.000328,-0.004396,-0.150319,-0.279308,-0.152332,0.000314,-0.014647,0.234528,-0.002614
# mode = 0
# plane_normal = -0.017470,-0.052341,0.998476
# ubconf = UB09Sep2024_43441PM.ini
# preset_type = normal
# preset_channel = mcu
# preset_value = 60.000000
# def_x = e
# def_y = detector
# col_headers =
#   Pt.          h          k          l          e         ef       time   detector    monitor        mcu focal_length         m1         m2   mcrystal       marc     mtrans     mfocus       ampl         dc       freq     output       temp     temp_2         s1         s2        sgl        sgu        bbb        bbl        bbr        bbt        bab        bal        bar        bat        stl        stu         a1         a2          q         ei   ampl_out output_state        vti     sample
      1     1.0750     0.0000     1.0749    33.0009    14.7000     45.790     38.000 150721.000     60.000    37.0817   -20.0773   -22.5087   120.0962    -0.1480    -3.0001   -64.5042     0.0000     0.0000     0.0000     1.0000     5.0000   300.0000    24.1311     3.3745     1.0010    -2.9998     9.0000    10.0000     5.0000    14.0000    16.0000     5.0000    10.0000    16.0000    -0.0005     0.0005   159.4167   -41.1662     2.1448    47.7009     2.0000     1.0000     5.0001     0.000
      2     1.0749     0.0000     1.0750    32.7483    14.7000     46.008     10.000 150721.000     60.000    37.1793   -20.0773   -22.5693   120.0962    -0.1480    -3.0001   -64.3182     0.0000     0.0000     0.0000     1.0000     5.0000   300.0000    22.0823     5.0249     1.0010    -2.9998     9.0000    10.0000     5.0000    14.0000    16.0000     5.0000    10.0000    16.0000    -0.0005     0.0005   159.4167   -41.1662     2.1447    47.4483     2.0000     1.0000     5.0007     0.000
      3     1.0750     0.0000     1.0750    32.5008    14.7000     45.736      6.000 150721.000     60.000    37.2776   -20.0773   -22.6292   120.0962    -0.1480    -3.0001   -64.1317     0.0000     0.0000     0.0000     1.0000     5.0000   300.0000    20.5496     6.2556     1.0010    -2.9998     9.0000    10.0000     5.0000    14.0000    16.0000     5.0000    10.0000    16.0000    -0.0005     0.0005   159.4167   -41.1662     2.1448    47.2008     2.0000     1.0000     4.9987     0.000
      4     1.0750     0.0000     1.0750    32.2499    14.7000     45.650      8.000 150721.000     60.000    37.3767   -20.0773   -22.6904   120.0962    -0.1480    -3.0001   -63.9448     0.0000     0.0000     0.0000     1.0000     5.0000   300.0000    19.2680     7.2830     1.0010    -2.9998     9.0000    10.0000     5.0000    14.0000    16.0000     5.0000    10.0000    16.0000    -0.0005     0.0005   159.4167   -41.1662     2.1448    46.9499     2.0000     1.0000     4.9992     0.000
      5     1.0750     0.0000     1.0751    31.9998    14.7000     45.547      5.000 150721.000     60.000    37.4766   -20.0773   -22.7519   120.0962    -0.1480    -3.0001   -63.7576     0.0000     0.0000     0.0000     1.0000     5.0000   300.0000    18.1419     8.1881     1.0010    -2.9998     9.0000    10.0000     5.0000    14.0000    16.0000     5.0000    10.0000    16.0000    -0.0005     0.0005   159.4167   -41.1662     2.1448    46.6998     2.0000     1.0000     5.0005     0.000
      6     1.0750     0.0000     1.0751    31.7502    14.7000     45.255      6.000 150721.000     60.000    37.5773   -20.0773   -22.8138   120.0962    -0.1480    -3.0001   -63.5699     0.0000     0.0000     0.0000     1.0000     5.0000   300.0000    17.1244     9.0019     1.0010    -2.9998     9.0000    10.0000     5.0000    14.0000    16.0000     5.0000    10.0000    16.0000    -0.0005     0.0005   159.4167   -41.1662     2.1448    46.4502     2.0000     1.0000     4.9991     0.000
      7     1.0750     0.0000     1.0751    31.5003    14.7000     45.441      4.000 150721.000     60.000    37.6789   -20.0773   -22.8762   120.0962    -0.1480    -3.0001   -63.3819     0.0000     0.0000     0.0000     1.0000     5.0000   300.0000    16.1880     9.7509     1.0010    -2.9998     9.0000    10.0000     5.0000    14.0000    16.0000     5.0000    10.0000    16.0000    -0.0005     0.0005   159.4167   -41.1662     2.1448    46.2003     2.0000     1.0000     5.0002     0.000
      8     1.0750     0.0000     1.0750    31.2498    14.7000     45.027      8.000 150721.000     60.000    37.7812   -20.0773   -22.9393   120.0962    -0.1480    -3.0001   -63.1934     0.0000     0.0000     0.0000     1.0000     5.0000   300.0000    15.3151    10.4454     1.0010    -2.9998     9.0000    10.0000     5.0000    14.0000    16.0000     5.0000    10.0000    16.0000    -0.0005     0.0005   159.4167   -41.1662     2.1448    45.9498     2.0000     1.0000     5.0018     0.000
      9     1.0750     0.0000     1.0750    30.9990    14.7000     44.650      5.000 150721.000     60.000    37.8844   -20.0773   -23.0030   120.0962    -0.1480    -3.0001   -63.0045     0.0000     0.0000     0.0000     1.0000     5.0000   300.0000    14.4936    11.1007     1.0010    -2.9998     9.0000    10.0000     5.0000    14.0000    16.0000     5.0000    10.0000    16.0000    -0.0005     0.0005   159.4167   -41.1662     2.1447    45.6990     2.0000     1.0000     4.9999     0.000
     10     1.0750     0.0000     1.0750    30.7507    14.7000     44.484      9.000 150721.000     60.000    37.9885   -20.0773   -23.0667   120.0962    -0.1480    -3.0001   -62.8152     0.0000     0.0000     0.0000     1.0000     5.0000   300.0000    13.7150    11.7212     1.0010    -2.9998     9.0000    10.0000     5.0000    14.0000    16.0000     5.0000    10.0000    16.0000    -0.0005     0.0005   159.4167   -41.1662     2.1448    45.4507     2.0000     1.0000     5.0001     0.000
     11     1.0750     0.0000     1.0751    30.4999    14.7000     44.408      4.000 150721.000     60.000    38.0934   -20.0773   -23.1314   120.0962    -0.1480    -3.0001   -62.6255     0.0000     0.0000     0.0000     1.0000     5.0000   300.0000    12.9726    12.3127     1.0010    -2.9998     9.0000    10.0000     5.0000    14.0000    16.0000     5.0000    10.0000    16.0000    -0.0005     0.0005   159.4167   -41.1662     2.1448    45.1999     2.0000     1.0000     5.0016     0.000
     12     1.0750     0.0000     1.0750    30.2508    14.7000     44.299      4.000 150721.000     60.000    38.1992   -20.0773   -23.1963   120.0962    -0.1480    -3.0001   -62.4354     0.0000     0.0000     0.0000     1.0000     5.0000   300.0000    12.2610    12.8753     1.0010    -2.9998     9.0000    10.0000     5.0000    14.0000    16.0000     5.0000    10.0000    16.0000    -0.0005     0.0005   159.4167   -41.1662     2.1448    44.9509     2.0000     1.0000     5.0000     0.000
     13     1.0750     0.0000     1.0750    29.9993    14.7000     43.805     11.000 150721.000     60.000    38.3059   -20.0773   -23.2624   120.0962    -0.1480    -3.0001   -62.2448     0.0000     0.0000     0.0000     1.0000     5.0000   300.0000    11.5777    13.4184     1.0010    -2.9998     9.0000    10.0000     5.0000    14.0000    16.0000     5.0000    10.0000    16.0000    -0.0005     0.0005   159.4167   -41.1662     2.1448    44.6993     2.0000     1.0000     4.9994     0.000
     14     1.0750     0.0000     1.0750    29.7495    14.7000     43.622     13.000 150721.000     60.000    38.4134   -20.0773   -23.3286   120.0962    -0.1480    -3.0001   -62.0538     0.0000     0.0000     0.0000     1.0000     5.0000   300.0000    10.9171    13.9420     1.0010    -2.9998     9.0000    10.0000     5.0000    14.0000    16.0000     5.0000    10.0000    16.0000    -0.0005     0.0005   159.4167   -41.1662     2.1448    44.4495     2.0000     1.0000     5.0006     0.000
     15     1.0750     0.0000     1.0750    29.5002    14.7000     43.759      7.000 150721.000     60.000    38.5219   -20.0773   -23.3952   120.0962    -0.1480    -3.0001   -61.8623     0.0000     0.0000     0.0000     1.0000     5.0000   300.0000    10.2782    14.4472     1.0010    -2.9998     9.0000    10.0000     5.0000    14.0000    16.0000     5.0000    10.0000    16.0000    -0.0005     0.0005   159.4167   -41.1662     2.1448    44.2002     2.0000     1.0000     4.9999     0.000
     16     1.0750     0.0000     1.0751    29.2507    14.7000     43.446     12.000 150721.000     60.000    38.6313   -20.0773   -23.4625   120.0962    -0.1480    -3.0001   -61.6704     0.0000     0.0000     0.0000     1.0000     5.0000   300.0000     9.6587    14.9387     1.0010    -2.9998     9.0000    10.0000     5.0000    14.0000    16.0000     5.0000    10.0000    16.0000    -0.0005     0.0005   159.4167   -41.1662     2.1449    43.9507     2.0000     1.0000     4.9998     0.000
     17     1.0750     0.0000     1.0751    28.9994    14.7000     43.153     10.000 150721.000     60.000    38.7417   -20.0773   -23.5308   120.0962    -0.1480    -3.0001   -61.4781     0.0000     0.0000     0.0000     1.0000     5.0000   300.0000     9.0559    15.4135     1.0010    -2.9998     9.0000    10.0000     5.0000    14.0000    16.0000     5.0000    10.0000    16.0000    -0.0005     0.0005   159.4167   -41.1662     2.1448    43.6994     2.0000     1.0000     4.9999     0.000
     18     1.0750     0.0000     1.0750    28.7500    14.7000     43.393      8.000 150721.000     60.000    38.8530   -20.0773   -23.5992   120.0962    -0.1480    -3.0001   -61.2854     0.0000     0.0000     0.0000     1.0000     5.0000   300.0000     8.4691    15.8749     1.0010    -2.9998     9.0000    10.0000     5.0000    14.0000    16.0000     5.0000    10.0000    16.0000    -0.0005     0.0005   159.4167   -41.1662     2.1448    43.4500     2.0000     1.0000     5.0008     0.000
     19     1.0750     0.0000     1.0751    28.5001    14.7000     43.150      8.000 150721.000     60.000    38.9652   -20.0773   -23.6684   120.0962    -0.1480    -3.0001   -61.0922     0.0000     0.0000     0.0000     1.0000     5.0000   300.0000     7.8963    16.3263     1.0010    -2.9998     9.0000    10.0000     5.0000    14.0000    16.0000     5.0000    10.0000    16.0000    -0.0005     0.0005   159.4167   -41.1662     2.1448    43.2001     2.0000     1.0000     5.0008     0.000
     20     1.0750     0.0000     1.0751    28.2503    14.7000     43.235      8.000 150721.000     60.000    39.0785   -20.0773   -23.7381   120.0962    -0.1480    -3.0001   -60.8985     0.0000     0.0000     0.0000     1.0000     5.0000   300.0000     7.3368    16.7668     1.0010    -2.9998     9.0000    10.0000     5.0000    14.0000    16.0000     5.0000    10.0000    16.0000    -0.0005     0.0005   159.4167   -41.1662     2.1449    42.9503     2.0000     1.0000     4.9991     0.000
     21     1.0750     0.0000     1.0751    27.9997    14.7000     42.974     18.000 150721.000     60.000    39.1927   -20.0773   -23.8086   120.0962    -0.1480    -3.0001   -60.7044     0.0000     0.0000     0.0000     1.0000     5.0000   300.0000     6.7890    17.1968     1.0010    -2.9998     9.0000    10.0000     5.0000    14.0000    16.0000     5.0000    10.0000    16.0000    -0.0005     0.0005   159.4167   -41.1662     2.1448    42.6997     2.0000     1.0000     5.0008     0.000
     22     1.0750     0.0000     1.0750    27.7506    14.7000     42.957      9.000 150721.000     60.000    39.3079   -20.0773   -23.8794   120.0962    -0.1480    -3.0001   -60.5098     0.0000     0.0000     0.0000     1.0000     5.0000   300.0000     6.2525    17.6151     1.0010    -2.9998     9.0000    10.0000     5.0000    14.0000    16.0000     5.0000    10.0000    16.0000    -0.0005     0.0005   159.4167   -41.1662     2.1448    42.4506     2.0000     1.0000     4.9995     0.000
     23     1.0750     0.0000     1.0750    27.4997    14.7000     42.479     12.000 150721.000     60.000    39.4242   -20.0773   -23.9513   120.0962    -0.1480    -3.0001   -60.3147     0.0000     0.0000     0.0000     1.0000     5.0000   300.0000     5.7255    18.0267     1.0010    -2.9998     9.0000    10.0000     5.0000    14.0000    16.0000     5.0000    10.0000    16.0000    -0.0005     0.0005   159.4167   -41.1662     2.1448    42.1997     2.0000     1.0000     5.0003     0.000
     24     1.0750     0.0000     1.0751    27.2498    14.7000     42.161      8.000 150721.000     60.000    39.5415   -20.0773   -24.0236   120.0962    -0.1480    -3.0001   -60.1192     0.0000     0.0000     0.0000     1.0000     5.0000   300.0000     5.2094    18.4316     1.0010    -2.9998     9.0000    10.0000     5.0000    14.0000    16.0000     5.0000    10.0000    16.0000    -0.0005     0.0005   159.4167   -41.1662     2.1448    41.9498     2.0000     1.0000     4.9998     0.000
     25     1.0750     0.0000     1.0750    27.0007    14.7000     41.776      9.000 150721.000     60.000    39.6598   -20.0773   -24.0964   120.0962    -0.1480    -3.0001   -59.9232     0.0000     0.0000     0.0000     1.0000     5.0000   300.0000     4.7009    18.8277     1.0010    -2.9998     9.0000    10.0000     5.0000    14.0000    16.0000     5.0000    10.0000    16.0000    -0.0005     0.0005   159.4167   -41.1662     2.1448    41.7007     2.0000     1.0000     4.9989     0.000
     26     1.0750     0.0000     1.0751    26.7501    14.7000     41.275     12.000 150721.000     60.000    39.7792   -20.0773   -24.1702   120.0962    -0.1480    -3.0001   -59.7267     0.0000     0.0000     0.0000     1.0000     5.0000   300.0000     4.2015    19.2174     1.0010    -2.9998     9.0000    10.0000     5.0000    14.0000    16.0000     5.0000    10.0000    16.0000    -0.0005     0.0005   159.4167   -41.1662     2.1448    41.4501     2.0000     1.0000     5.0005     0.000
     27     1.0750     0.0000     1.0751    26.4993    14.7000     40.813     12.000 150721.000     60.000    39.8998   -20.0773   -24.2448   120.0962    -0.1480    -3.0001   -59.5297     0.0000     0.0000     0.0000     1.0000     5.0000   300.0000     3.7098    19.5999     1.0010    -2.9998     9.0000    10.0000     5.0000    14.0000    16.0000     5.0000    10.0000    16.0000    -0.0005     0.0005   159.4167   -41.1662     2.1448    41.1993     2.0000     1.0000     4.9993     0.000
     28     1.0750     0.0000     1.0751    26.2501    14.7000     40.464      9.000 150721.000     60.000    40.0214   -20.0773   -24.3195   120.0962    -0.1480    -3.0001   -59.3323     0.0000     0.0000     0.0000     1.0000     5.0000   300.0000     3.2248    19.9781     1.0010    -2.9998     9.0000    10.0000     5.0000    14.0000    16.0000     5.0000    10.0000    16.0000    -0.0005     0.0005   159.4167   -41.1662     2.1449    40.9501     2.0000     1.0000     4.9996     0.000
     29     1.0750     0.0000     1.0750    25.9999    14.7000     40.014     16.000 150721.000     60.000    40.1441   -20.0773   -24.3953   120.0962    -0.1480    -3.0001   -59.1343     0.0000     0.0000     0.0000     1.0000     5.0000   300.0000     2.7469    20.3462     1.0010    -2.9998     9.0000    10.0000     5.0000    14.0000    16.0000     5.0000    10.0000    16.0000    -0.0005     0.0005   159.4167   -41.1662     2.1448    40.6999     2.0000     1.0000     5.0001     0.000
     30     1.0750     0.0000     1.0750    25.7499    14.7000     39.609     15.000 150721.000     60.000    40.2680   -20.0773   -24.4718   120.0962    -0.1480    -3.0001   -58.9359     0.0000     0.0000     0.0000     1.0000     5.0000   300.0000     2.2756    20.7105     1.0010    -2.9998     9.0000    10.0000     5.0000    14.0000    16.0000     5.0000    10.0000    16.0000    -0.0005     0.0005   159.4167   -41.1662     2.1448    40.4499     2.0000     1.0000     4.9988     0.000
     31     1.0750     0.0000     1.0750    25.5006    14.7000     39.409      8.000 150721.000     60.000    40.3930   -20.0773   -24.5487   120.0962    -0.1480    -3.0001   -58.7370     0.0000     0.0000     0.0000     1.0000     5.0000   300.0000     1.8105    21.0690     1.0010    -2.9998     9.0000    10.0000     5.0000    14.0000    16.0000     5.0000    10.0000    16.0000    -0.0005     0.0005   159.4167   -41.1662     2.1448    40.2006     2.0000     1.0000     5.0000     0.000
     32     1.0750     0.0000     1.0750    25.2504    14.7000     39.196     13.000 150721.000     60.000    40.5192   -20.0773   -24.6266   120.0962    -0.1480    -3.0001   -58.5375     0.0000     0.0000     0.0000     1.0000     5.0000   300.0000     1.3505    21.4247     1.0010    -2.9998     9.0000    10.0000     5.0000    14.0000    16.0000     5.0000    10.0000    16.0000    -0.0005     0.0005   159.4167   -41.1662     2.1448    39.9505     2.0000     1.0000     5.0013     0.000
     33     1.0750     0.0000     1.0751    24.9999    14.7000     38.924      5.000 150721.000     60.000    40.6465   -20.0773   -24.7054   120.0962    -0.1480    -3.0001   -58.3375     0.0000     0.0000     0.0000     1.0000     5.0000   300.0000     0.8962    21.7767     1.0010    -2.9998     9.0000    10.0000     5.0000    14.0000    16.0000     5.0000    10.0000    16.0000    -0.0005     0.0005   159.4167   -41.1662     2.1449    39.6999     2.0000     1.0000     4.9995     0.000
     34     1.0750     0.0000     1.0751    24.7497    14.7000     38.982     10.000 150721.000     60.000    40.7751   -20.0773   -24.7849   120.0962    -0.1480    -3.0001   -58.1370     0.0000     0.0000     0.0000     1.0000     5.0000   300.0000     0.4475    22.1212     1.0010    -2.9998     9.0000    10.0000     5.0000    14.0000    16.0000     5.0000    10.0000    16.0000    -0.0005     0.0005   159.4167   -41.1662     2.1448    39.4497     2.0000     1.0000     4.9989     0.000
     35     1.0750     0.0000     1.0750    24.5003    14.7000     39.060      5.000 150721.000     60.000    40.9049   -20.0773   -24.8649   120.0962    -0.1480    -3.0001   -57.9360     0.0000     0.0000     0.0000     1.0000     5.0000   300.0000     0.0030    22.4609     1.0010    -2.9998     9.0000    10.0000     5.0000    14.0000    16.0000     5.0000    10.0000    16.0000    -0.0005     0.0005   159.4167   -41.1662     2.1448    39.2003     2.0000     1.0000     4.9999     0.000
     36     1.0750     0.0000     1.0751    24.2497    14.7000     38.949     18.000 150721.000     60.000    41.0360   -20.0773   -24.9460   120.0962    -0.1480    -3.0001   -57.7345     0.0000     0.0000     0.0000     1.0000     5.0000   300.0000    -0.4368    22.7997     1.0010    -2.9998     9.0000    10.0000     5.0000    14.0000    16.0000     5.0000    10.0000    16.0000    -0.0005     0.0005   159.4167   -41.1662     2.1448    38.9497     2.0000     1.0000     4.9995     0.000
     37     1.0750     0.0000     1.0750    24.0003    14.7000     39.226      5.000 150721.000     60.000    41.1683   -20.0773   -25.0276   120.0962    -0.1480    -3.0001   -57.5324     0.0000     0.0000     0.0000     1.0000     5.0000   300.0000    -0.8720    23.1318     1.0010    -2.9998     9.0000    10.0000     5.0000    14.0000    16.0000     5.0000    10.0000    16.0000    -0.0005     0.0005   159.4167   -41.1662     2.1448    38.7003     2.0000     1.0000     4.9997     0.000
