# scan = 89
# date = 9/12/2024
# time = 2:11:06 AM
# proposal = 34735
# experiment = Magnons and paramagnon coupling in MnTe
# experiment_number = 813
# command = scan h 1.225 k 0.0 l 1.225 e 24.75 5 0.25 ef 14.7 preset mcu 60
# builtin_command = scan h 1.225 k 0.0 l 1.225 e 24.75 5 0.25 ef 14.7 preset mcu 60
# users = Benjamin Frandsen, Songxue Chi, George Yumnam, Huibo Cao, Michael Manley, Raphael Hermann, Eleanor Clements
# local_contact = Eleanor Clements
# scan_title = -H0L scans along (101) to (1.5, 0, 0.5) at H/L = 1.225, mcu = 60, E = 25 to 5 mev
# monochromator = PG002
# analyzer = Pg002
# sense = -+-
# collimation = 48-40-40-120
# samplename = MnTe
# sampletype = crystal
# samplemosaic = 30.000000
# latticeconstants = 4.128474,4.128474,6.651507,90.000000,90.000000,120.000000
# ubmatrix = -0.000328,-0.004396,-0.150319,-0.279308,-0.152332,0.000314,-0.014647,0.234528,-0.002614
# mode = 0
# plane_normal = -0.017470,-0.052341,0.998476
# ubconf = UB09Sep2024_43441PM.ini
# preset_type = normal
# preset_channel = mcu
# preset_value = 60.000000
# def_x = e
# def_y = detector
# col_headers =
#   Pt.          h          k          l          e         ef       time   detector    monitor        mcu focal_length         m1         m2   mcrystal       marc     mtrans     mfocus       ampl         dc       freq     output       temp     temp_2         s1         s2        sgl        sgu        bbb        bbl        bbr        bbt        bab        bal        bar        bat        stl        stu         a1         a2          q         ei   ampl_out output_state        vti     sample
      1     1.2250     0.0000     1.2250    24.7495    14.7000     38.945      7.000 150721.000     60.000    40.7751   -20.0773   -24.7850   120.0962    -0.1480    -3.0001   -58.1370     0.0000     0.0000     0.0000     1.0000     5.0000   300.0000    -4.5243    29.8515     1.0010    -2.9998     9.0000    10.0000     5.0000    14.0000    16.0000     5.0000    10.0000    16.0000    -0.0005     0.0005   159.4167   -41.1662     2.4440    39.4495     2.0000     1.0000     4.9998     0.000
      2     1.2250     0.0000     1.2250    24.5003    14.7000     39.089      5.000 150721.000     60.000    40.9049   -20.0773   -24.8649   120.0962    -0.1480    -3.0001   -57.9360     0.0000     0.0000     0.0000     1.0000     5.0000   300.0000    -4.8398    30.1334     1.0010    -2.9998     9.0000    10.0000     5.0000    14.0000    16.0000     5.0000    10.0000    16.0000    -0.0005     0.0005   159.4167   -41.1662     2.4441    39.2003     2.0000     1.0000     5.0003     0.000
      3     1.2250     0.0000     1.2250    24.2497    14.7000     39.058      4.000 150721.000     60.000    41.0360   -20.0773   -24.9460   120.0962    -0.1480    -3.0001   -57.7345     0.0000     0.0000     0.0000     1.0000     5.0000   300.0000    -5.1539    30.4119     1.0010    -2.9998     9.0000    10.0000     5.0000    14.0000    16.0000     5.0000    10.0000    16.0000    -0.0005     0.0005   159.4167   -41.1662     2.4441    38.9497     2.0000     1.0000     4.9989     0.000
      4     1.2250     0.0000     1.2250    24.0003    14.7000     39.516      9.000 150721.000     60.000    41.1683   -20.0773   -25.0276   120.0962    -0.1480    -3.0001   -57.5324     0.0000     0.0000     0.0000     1.0000     5.0000   300.0000    -5.4660    30.6883     1.0010    -2.9998     9.0000    10.0000     5.0000    14.0000    16.0000     5.0000    10.0000    16.0000    -0.0005     0.0005   159.4167   -41.1662     2.4441    38.7003     2.0000     1.0000     5.0005     0.000
      5     1.2250     0.0000     1.2250    23.7499    14.7000     39.636      8.000 150721.000     60.000    41.3020   -20.0773   -25.1103   120.0962    -0.1480    -3.0001   -57.3298     0.0000     0.0000     0.0000     1.0000     5.0000   300.0000    -5.7774    30.9651     1.0010    -2.9998     9.0000    10.0000     5.0000    14.0000    16.0000     5.0000    10.0000    16.0000    -0.0005     0.0005   159.4167   -41.1662     2.4441    38.4499     2.0000     1.0000     5.0006     0.000
      6     1.2250     0.0000     1.2250    23.5004    14.7000     39.784      3.000 150721.000     60.000    41.4369   -20.0773   -25.1935   120.0962    -0.1480    -3.0001   -57.1267     0.0000     0.0000     0.0000     1.0000     5.0000   300.0000    -6.0871    31.2393     1.0010    -2.9998     9.0000    10.0000     5.0000    14.0000    16.0000     5.0000    10.0000    16.0000    -0.0005     0.0005   159.4167   -41.1662     2.4441    38.2004     2.0000     1.0000     4.9994     0.000
      7     1.2250     0.0000     1.2250    23.2497    14.7000     40.316      2.000 150721.000     60.000    41.5732   -20.0773   -25.2779   120.0962    -0.1480    -3.0001   -56.9230     0.0000     0.0000     0.0000     1.0000     5.0000   300.0000    -6.3958    31.5121     1.0010    -2.9998     9.0000    10.0000     5.0000    14.0000    16.0000     5.0000    10.0000    16.0000    -0.0005     0.0005   159.4167   -41.1662     2.4441    37.9497     2.0000     1.0000     5.0001     0.000
      8     1.2250     0.0000     1.2251    23.0002    14.7000     40.822      4.000 150721.000     60.000    41.7108   -20.0773   -25.3628   120.0962    -0.1480    -3.0001   -56.7188     0.0000     0.0000     0.0000     1.0000     5.0000   300.0000    -6.7027    31.7857     1.0010    -2.9998     9.0000    10.0000     5.0000    14.0000    16.0000     5.0000    10.0000    16.0000    -0.0005     0.0005   159.4167   -41.1662     2.4442    37.7002     2.0000     1.0000     5.0014     0.000
      9     1.2250     0.0000     1.2250    22.7497    14.7000     41.191     14.000 150721.000     60.000    41.8497   -20.0773   -25.4489   120.0962    -0.1480    -3.0001   -56.5140     0.0000     0.0000     0.0000     1.0000     5.0000   300.0000    -7.0090    32.0531     1.0010    -2.9998     9.0000    10.0000     5.0000    14.0000    16.0000     5.0000    10.0000    16.0000    -0.0005     0.0005   159.4167   -41.1662     2.4440    37.4497     2.0000     1.0000     4.9991     0.000
     10     1.2251     0.0000     1.2250    22.5014    14.7000     41.537      3.000 150721.000     60.000    41.9902   -20.0773   -25.5352   120.0962    -0.1480    -3.0001   -56.3086     0.0000     0.0000     0.0000     1.0000     5.0000   300.0000    -7.3139    32.3243     1.0010    -2.9998     9.0000    10.0000     5.0000    14.0000    16.0000     5.0000    10.0000    16.0000    -0.0005     0.0005   159.4167   -41.1662     2.4442    37.2014     2.0000     1.0000     5.0010     0.000
     11     1.2250     0.0000     1.2251    22.2494    14.7000     42.021      6.000 150721.000     60.000    42.1320   -20.0773   -25.6236   120.0962    -0.1480    -3.0001   -56.1026     0.0000     0.0000     0.0000     1.0000     5.0000   300.0000    -7.6171    32.5924     1.0010    -2.9998     9.0000    10.0000     5.0000    14.0000    16.0000     5.0000    10.0000    16.0000    -0.0005     0.0005   159.4167   -41.1662     2.4441    36.9494     2.0000     1.0000     5.0002     0.000
     12     1.2250     0.0000     1.2250    21.9997    14.7000     42.310     11.000 150721.000     60.000    42.2752   -20.0773   -25.7121   120.0962    -0.1480    -3.0001   -55.8961     0.0000     0.0000     0.0000     1.0000     5.0000   300.0000    -7.9200    32.8562     1.0010    -2.9998     9.0000    10.0000     5.0000    14.0000    16.0000     5.0000    10.0000    16.0000    -0.0005     0.0005   159.4167   -41.1662     2.4440    36.6997     2.0000     1.0000     4.9998     0.000
     13     1.2250     0.0000     1.2250    21.7501    14.7000     42.864      7.000 150721.000     60.000    42.4200   -20.0773   -25.8014   120.0962    -0.1480    -3.0001   -55.6890     0.0000     0.0000     0.0000     1.0000     5.0000   300.0000    -8.2218    33.1237     1.0010    -2.9998     9.0000    10.0000     5.0000    14.0000    16.0000     5.0000    10.0000    16.0000    -0.0005     0.0005   159.4167   -41.1662     2.4441    36.4501     2.0000     1.0000     5.0009     0.000
     14     1.2250     0.0000     1.2251    21.4996    14.7000     42.967      8.000 150721.000     60.000    42.5662   -20.0773   -25.8921   120.0962    -0.1480    -3.0001   -55.4813     0.0000     0.0000     0.0000     1.0000     5.0000   300.0000    -8.5225    33.3891     1.0010    -2.9998     9.0000    10.0000     5.0000    14.0000    16.0000     5.0000    10.0000    16.0000    -0.0005     0.0005   159.4167   -41.1662     2.4441    36.1996     2.0000     1.0000     4.9996     0.000
     15     1.2250     0.0000     1.2250    21.2502    14.7000     42.974      7.000 150721.000     60.000    42.7139   -20.0773   -25.9834   120.0962    -0.1480    -3.0001   -55.2730     0.0000     0.0000     0.0000     1.0000     5.0000   300.0000    -8.8221    33.6515     1.0010    -2.9998     9.0000    10.0000     5.0000    14.0000    16.0000     5.0000    10.0000    16.0000    -0.0005     0.0005   159.4167   -41.1662     2.4441    35.9502     2.0000     1.0000     5.0001     0.000
     16     1.2250     0.0000     1.2250    21.0005    14.7000     42.933      8.000 150721.000     60.000    42.8632   -20.0773   -26.0757   120.0962    -0.1480    -3.0001   -55.0642     0.0000     0.0000     0.0000     1.0000     5.0000   300.0000    -9.1209    33.9141     1.0010    -2.9998     9.0000    10.0000     5.0000    14.0000    16.0000     5.0000    10.0000    16.0000    -0.0005     0.0005   159.4167   -41.1662     2.4441    35.7005     2.0000     1.0000     5.0014     0.000
     17     1.2250     0.0000     1.2251    20.7495    14.7000     43.086     11.000 150721.000     60.000    43.0141   -20.0773   -26.1695   120.0962    -0.1480    -3.0001   -54.8546     0.0000     0.0000     0.0000     1.0000     5.0000   300.0000    -9.4191    34.1781     1.0010    -2.9998     9.0000    10.0000     5.0000    14.0000    16.0000     5.0000    10.0000    16.0000    -0.0005     0.0005   159.4167   -41.1662     2.4442    35.4495     2.0000     1.0000     5.0002     0.000
     18     1.2250     0.0000     1.2250    20.4997    14.7000     43.287      4.000 150721.000     60.000    43.1666   -20.0773   -26.2638   120.0962    -0.1480    -3.0001   -54.6446     0.0000     0.0000     0.0000     1.0000     5.0000   300.0000    -9.7160    34.4359     1.0010    -2.9998     9.0000    10.0000     5.0000    14.0000    16.0000     5.0000    10.0000    16.0000    -0.0005     0.0005   159.4167   -41.1662     2.4441    35.1997     2.0000     1.0000     5.0010     0.000
     19     1.2250     0.0000     1.2250    20.2504    14.7000     43.267      9.000 150721.000     60.000    43.3207   -20.0773   -26.3590   120.0962    -0.1480    -3.0001   -54.4338     0.0000     0.0000     0.0000     1.0000     5.0000   300.0000   -10.0124    34.6946     1.0010    -2.9998     9.0000    10.0000     5.0000    14.0000    16.0000     5.0000    10.0000    16.0000    -0.0005     0.0005   159.4167   -41.1662     2.4441    34.9504     2.0000     1.0000     4.9988     0.000
     20     1.2250     0.0000     1.2251    19.9996    14.7000     43.569      5.000 150721.000     60.000    43.4765   -20.0773   -26.4558   120.0962    -0.1480    -3.0001   -54.2224     0.0000     0.0000     0.0000     1.0000     5.0000   300.0000   -10.3081    34.9566     1.0010    -2.9998     9.0000    10.0000     5.0000    14.0000    16.0000     5.0000    10.0000    16.0000    -0.0005     0.0005   159.4167   -41.1662     2.4442    34.6996     2.0000     1.0000     4.9995     0.000
     21     1.2250     0.0000     1.2251    19.7503    14.7000     43.850      6.000 150721.000     60.000    43.6339   -20.0773   -26.5531   120.0962    -0.1480    -3.0001   -54.0105     0.0000     0.0000     0.0000     1.0000     5.0000   300.0000   -10.6029    35.2131     1.0010    -2.9998     9.0000    10.0000     5.0000    14.0000    16.0000     5.0000    10.0000    16.0000    -0.0005     0.0005   159.4167   -41.1662     2.4441    34.4503     2.0000     1.0000     5.0009     0.000
     22     1.2250     0.0000     1.2250    19.4998    14.7000     44.173     10.000 150721.000     60.000    43.7931   -20.0773   -26.6519   120.0962    -0.1480    -3.0001   -53.7978     0.0000     0.0000     0.0000     1.0000     5.0000   300.0000   -10.8972    35.4676     1.0010    -2.9998     9.0000    10.0000     5.0000    14.0000    16.0000     5.0000    10.0000    16.0000    -0.0005     0.0005   159.4167   -41.1662     2.4440    34.1998     2.0000     1.0000     5.0009     0.000
     23     1.2250     0.0000     1.2250    19.2501    14.7000     44.506     11.000 150721.000     60.000    43.9541   -20.0773   -26.7516   120.0962    -0.1480    -3.0001   -53.5845     0.0000     0.0000     0.0000     1.0000     5.0000   300.0000   -11.1910    35.7255     1.0010    -2.9998     9.0000    10.0000     5.0000    14.0000    16.0000     5.0000    10.0000    16.0000    -0.0005     0.0005   159.4167   -41.1662     2.4441    33.9501     2.0000     1.0000     4.9999     0.000
     24     1.2251     0.0000     1.2251    19.0003    14.7000     44.898      5.000 150721.000     60.000    44.1168   -20.0773   -26.8524   120.0962    -0.1480    -3.0001   -53.3706     0.0000     0.0000     0.0000     1.0000     5.0000   300.0000   -11.4841    35.9828     1.0010    -2.9998     9.0000    10.0000     5.0000    14.0000    16.0000     5.0000    10.0000    16.0000    -0.0005     0.0005   159.4167   -41.1662     2.4442    33.7003     2.0000     1.0000     4.9992     0.000
     25     1.2250     0.0000     1.2251    18.7494    14.7000     45.329      7.000 150721.000     60.000    44.2813   -20.0773   -26.9548   120.0962    -0.1480    -3.0001   -53.1560     0.0000     0.0000     0.0000     1.0000     5.0000   300.0000   -11.7761    36.2355     1.0010    -2.9998     9.0000    10.0000     5.0000    14.0000    16.0000     5.0000    10.0000    16.0000    -0.0005     0.0005   159.4167   -41.1662     2.4441    33.4494     2.0000     1.0000     4.9998     0.000
     26     1.2250     0.0000     1.2250    18.5000    14.7000     45.494      5.000 150721.000     60.000    44.4478   -20.0773   -27.0578   120.0962    -0.1480    -3.0001   -52.9407     0.0000     0.0000     0.0000     1.0000     5.0000   300.0000   -12.0684    36.4879     1.0010    -2.9998     9.0000    10.0000     5.0000    14.0000    16.0000     5.0000    10.0000    16.0000    -0.0005     0.0005   159.4167   -41.1662     2.4440    33.2000     2.0000     1.0000     5.0006     0.000
     27     1.2250     0.0000     1.2250    18.2503    14.7000     45.982      9.000 150721.000     60.000    44.6161   -20.0773   -27.1621   120.0962    -0.1480    -3.0001   -52.7248     0.0000     0.0000     0.0000     1.0000     5.0000   300.0000   -12.3596    36.7418     1.0010    -2.9998     9.0000    10.0000     5.0000    14.0000    16.0000     5.0000    10.0000    16.0000    -0.0005     0.0005   159.4167   -41.1662     2.4441    32.9503     2.0000     1.0000     5.0002     0.000
     28     1.2250     0.0000     1.2251    17.9999    14.7000     45.966      5.000 150721.000     60.000    44.7863   -20.0773   -27.2678   120.0962    -0.1480    -3.0001   -52.5081     0.0000     0.0000     0.0000     1.0000     5.0000   300.0000   -12.6506    36.9972     1.0010    -2.9998     9.0000    10.0000     5.0000    14.0000    16.0000     5.0000    10.0000    16.0000    -0.0005     0.0005   159.4167   -41.1662     2.4442    32.7000     2.0000     1.0000     5.0004     0.000
     29     1.2250     0.0000     1.2250    17.7503    14.7000     46.075      7.000 150721.000     60.000    44.9585   -20.0773   -27.3745   120.0962    -0.1480    -3.0001   -52.2908     0.0000     0.0000     0.0000     1.0000     5.0000   300.0000   -12.9411    37.2460     1.0010    -2.9998     9.0000    10.0000     5.0000    14.0000    16.0000     5.0000    10.0000    16.0000    -0.0005     0.0005   159.4167   -41.1662     2.4441    32.4504     2.0000     1.0000     4.9996     0.000
     30     1.2250     0.0000     1.2250    17.4998    14.7000     46.686     12.000 150721.000     60.000    45.1326   -20.0773   -27.4829   120.0962    -0.1480    -3.0001   -52.0728     0.0000     0.0000     0.0000     1.0000     5.0000   300.0000   -13.2313    37.4979     1.0010    -2.9998     9.0000    10.0000     5.0000    14.0000    16.0000     5.0000    10.0000    16.0000    -0.0005     0.0005   159.4167   -41.1662     2.4441    32.1999     2.0000     1.0000     5.0003     0.000
     31     1.2250     0.0000     1.2250    17.2499    14.7000     46.903      5.000 150721.000     60.000    45.3089   -20.0773   -27.5923   120.0962    -0.1480    -3.0001   -51.8540     0.0000     0.0000     0.0000     1.0000     5.0000   300.0000   -13.5211    37.7485     1.0010    -2.9998     9.0000    10.0000     5.0000    14.0000    16.0000     5.0000    10.0000    16.0000    -0.0005     0.0005   159.4167   -41.1662     2.4441    31.9499     2.0000     1.0000     4.9992     0.000
     32     1.2250     0.0000     1.2250    17.0000    14.7000     47.067      7.000 150721.000     60.000    45.4872   -20.0773   -27.7030   120.0962    -0.1480    -3.0001   -51.6345     0.0000     0.0000     0.0000     1.0000     5.0000   300.0000   -13.8101    37.9987     1.0010    -2.9998     9.0000    10.0000     5.0000    14.0000    16.0000     5.0000    10.0000    16.0000    -0.0005     0.0005   159.4167   -41.1662     2.4441    31.7000     2.0000     1.0000     4.9999     0.000
     33     1.2250     0.0000     1.2250    16.7499    14.7000     47.429     11.000 150721.000     60.000    45.6676   -20.0773   -27.8151   120.0962    -0.1480    -3.0001   -51.4143     0.0000     0.0000     0.0000     1.0000     5.0000   300.0000   -14.0995    38.2472     1.0010    -2.9998     9.0000    10.0000     5.0000    14.0000    16.0000     5.0000    10.0000    16.0000    -0.0005     0.0005   159.4167   -41.1662     2.4441    31.4499     2.0000     1.0000     5.0001     0.000
     34     1.2250     0.0000     1.2250    16.5002    14.7000     47.511      8.000 150721.000     60.000    45.8503   -20.0773   -27.9285   120.0962    -0.1480    -3.0001   -51.1934     0.0000     0.0000     0.0000     1.0000     5.0000   300.0000   -14.3879    38.4958     1.0010    -2.9998     9.0000    10.0000     5.0000    14.0000    16.0000     5.0000    10.0000    16.0000    -0.0005     0.0005   159.4167   -41.1662     2.4441    31.2002     2.0000     1.0000     4.9990     0.000
     35     1.2250     0.0000     1.2251    16.2498    14.7000     47.496      5.000 150721.000     60.000    46.0351   -20.0773   -28.0435   120.0962    -0.1480    -3.0001   -50.9717     0.0000     0.0000     0.0000     1.0000     5.0000   300.0000   -14.6766    38.7466     1.0010    -2.9998     9.0000    10.0000     5.0000    14.0000    16.0000     5.0000    10.0000    16.0000    -0.0005     0.0005   159.4167   -41.1662     2.4441    30.9498     2.0000     1.0000     4.9996     0.000
     36     1.2250     0.0000     1.2251    15.9998    14.7000     47.712      7.000 150721.000     60.000    46.2221   -20.0773   -28.1598   120.0962    -0.1480    -3.0001   -50.7492     0.0000     0.0000     0.0000     1.0000     5.0000   300.0000   -14.9648    38.9950     1.0010    -2.9998     9.0000    10.0000     5.0000    14.0000    16.0000     5.0000    10.0000    16.0000    -0.0005     0.0005   159.4167   -41.1662     2.4442    30.6998     2.0000     1.0000     5.0001     0.000
     37     1.2250     0.0000     1.2250    15.7505    14.7000     47.811      9.000 150721.000     60.000    46.4115   -20.0773   -28.2773   120.0962    -0.1480    -3.0001   -50.5260     0.0000     0.0000     0.0000     1.0000     5.0000   300.0000   -15.2532    39.2397     1.0010    -2.9998     9.0000    10.0000     5.0000    14.0000    16.0000     5.0000    10.0000    16.0000    -0.0005     0.0005   159.4167   -41.1662     2.4441    30.4505     2.0000     1.0000     4.9992     0.000
