# scan = 3
# date = 4/9/2024
# time = 12:54:09 PM
# proposal = 9880
# experiment = HB-1 Instrument Calibration
# experiment_number = 932
# command = scan s2 -38.940000 -42.830000 0.097250
# builtin_command = scan s2 -38.940000 -42.830000 0.097250
# users = Adam Aczel, Andrew Christianson, Songxue Chi, Fankang Li, Jaime Fernandez-Baca, Masaaki Matsuda, Tao Hong, Wei Tian, Michael Cox
# local_contact = Masa Matsuda
# scan_title = Ni Powder (1.0,0.0,0.0)
# monochromator = Heusler
# analyzer = Heusler
# sense = +-+
# collimation = 48-80-60-999
# samplename = Ni
# sampletype = crystal
# samplemosaic = 30.000000
# latticeconstants = 5.000000,5.000000,5.000000,90.000000,90.000000,90.000000
# ubmatrix = 0.141421,0.141421,-0.000000,-0.000000,-0.000000,0.200000,0.141421,-0.141421,0.000000
# mode = 0
# plane_normal = 0.000000,0.000000,1.000000
# ubconf = UB09Apr2024_122243PM.ini
# preset_type = normal 
# preset_channel = time
# preset_value = 1.000000
# def_x = s2
# def_y = detector
# col_headers = 
#   Pt.         s2       time   detector    monitor        mcu         m1         m2       marc     mtrans     mfocus     fguide     hguide     vguide    tbguide     aguide     bguide     cguide         s1        sgl        sgu slit_pre_bt slit_pre_lf slit_pre_rt slit_pre_tp        stl        stu         a1         a2          q          h          k          l         ei         ef          e
      1   -38.9444      1.000    470.000    549.000      0.570   -49.1828    41.9676     0.5070     9.0000   279.9974     0.0010     0.0007     0.0042     0.0067     0.0000     0.0000    -0.0006   -10.0000     0.0000     0.0000    25.0000    15.0000    15.0000    25.0000     0.0000     0.0000    20.9837    -0.0126     1.7017     0.9445     0.9445    -0.2229    13.5001    13.5001     0.000
      2   -39.0355      1.000    487.000    582.000      0.605   -49.1828    41.9676     0.5070     9.0000   279.9974     0.0013     0.0007     0.0042     0.0067    -0.0003     0.0000    -0.0006   -10.0000     0.0000     0.0000    25.0000    15.0000    15.0000    25.0000     0.0000     0.0000    20.9837    -0.0126     1.7056     0.9465     0.9465    -0.2244    13.5001    13.5001     0.000
      3   -39.1363      1.000    515.000    554.000      0.576   -49.1828    41.9676     0.5070     9.0000   279.9974     0.0013     0.0010     0.0042     0.0067     0.0000     0.0000    -0.0006   -10.0000     0.0000     0.0000    25.0000    15.0000    15.0000    25.0000     0.0000     0.0000    20.9837    -0.0126     1.7098     0.9487     0.9487    -0.2262    13.5001    13.5001     0.000
      4   -39.2300      0.000      0.000      0.000      0.000   -49.1828    41.9676     0.5070     9.0000   279.9974     0.0013     0.0010     0.0042     0.0067     0.0003     0.0000     0.0000   -10.0000     0.0000     0.0000    25.0000    15.0000    15.0000    25.0000     0.0000     0.0000    20.9837    -0.0126     1.7137     0.9508     0.9508    -0.2278    13.5001    13.5001     0.000
# Sum of Counts = 1472
# Center of Mass = -39.041679+/-1.439097
# Full Width Half-Maximum = 0.157055+/-1.665495
# 12:54:31 PM  4/9/2024   scan stopped!!
