# scan = 2
# date = 5/1/2024
# time = 11:35:13 AM
# proposal = 32275
# experiment = Low Temperature Magnetic Structure of CeCl3
# experiment_number = 1017
# command = th2th 2 -2 0.2
# builtin_command = scan s2 @(s2)+2 @(s2)+-2 0.200000 s1 @(s1)+(2/2) @(s1)+(-2/2) 0.100000
# users = Adam Aczel, David Mandrus, Matthew Cothrine, Stephen Nagler
# local_contact = A. Aczel
# scan_title = align on 110, 1.7 K
# monochromator = PG002
# analyzer = Pg002
# sense = +-+
# collimation = 40-40-40-80
# samplename = CeCl3
# sampletype = crystal
# samplemosaic = 30.000000
# latticeconstants = 7.451000,7.451000,4.312000,90.000000,90.000000,120.000000
# ubmatrix = 0.109582,0.149692,-0.000000,0.000000,0.000000,0.231911,0.109582,-0.040110,0.000000
# mode = 0
# plane_normal = 0.000000,0.000000,1.000000
# ubconf = UB01May2024_112140AM.ini
# preset_type = normal
# preset_channel = time
# preset_value = 1.000000
# def_x = s2
# def_y = detector
# col_headers =
#   Pt.         s2         s1       time   detector    monitor        mcu         m2        sgl        sgu   slitb_bt   slitb_lf   slitb_rt   slitb_tp   slita_bt   slita_lf   slita_rt   slita_tp        stl        stu         sz         a1         a2          q          h          k          l         ei         ef          e        vti     sample       temp     temp_2
      1   -35.7924    85.6268      1.000     58.000   9474.000      0.971    41.5367     0.0004    -0.0004    25.0000    15.0000    15.0000    25.0000    25.0000    15.0000    15.0000    25.0000     0.0000     0.0000    -0.0014    20.7715    41.5329     1.6231    -0.1164    -0.3181    -1.0830    14.4503    14.4528    -0.0025     1.7451     0.0000     1.0000   100.000
      2   -35.9960    85.5251      1.000     52.000   9272.000      0.951    41.5367     0.0004    -0.0004    25.0000    15.0000    15.0000    25.0000    25.0000    15.0000    15.0000    25.0000     0.0000     0.0000    -0.0014    20.7715    41.5330     1.6320    -0.1171    -0.3198    -1.0890    14.4503    14.4528    -0.0025     1.7450     0.0000     1.0000   100.000
      3   -36.1940    85.4253      1.000     50.000   9604.000      0.985    41.5367     0.0004    -0.0004    25.0000    15.0000    15.0000    25.0000    25.0000    15.0000    15.0000    25.0000     0.0000     0.0000    -0.0014    20.7714    41.5329     1.6407    -0.1177    -0.3215    -1.0948    14.4503    14.4528    -0.0025     1.7451     0.0000     1.0000   100.000
      4   -36.3919    85.3254      1.000     88.000   9573.000      0.982    41.5367     0.0004    -0.0004    25.0000    15.0000    15.0000    25.0000    25.0000    15.0000    15.0000    25.0000     0.0000     0.0000    -0.0014    20.7714    41.5329     1.6493    -0.1183    -0.3232    -1.1006    14.4503    14.4528    -0.0025     1.7454     0.0000     1.0000   100.000
      5   -36.5903    85.2253      1.000    384.000   9495.000      0.974    41.5367     0.0004    -0.0004    25.0000    15.0000    15.0000    25.0000    25.0000    15.0000    15.0000    25.0000     0.0000     0.0000    -0.0015    20.7714    41.5329     1.6580    -0.1189    -0.3249    -1.1064    14.4503    14.4528    -0.0025     1.7456     0.0000     1.0000   100.000
      6   -36.7893    85.1254      1.000   2152.000   9435.000      0.967    41.5367     0.0004    -0.0004    25.0000    15.0000    15.0000    25.0000    25.0000    15.0000    15.0000    25.0000     0.0000     0.0000    -0.0015    20.7714    41.5329     1.6667    -0.1195    -0.3265    -1.1122    14.4503    14.4528    -0.0025     1.7458     0.0000     1.0000   100.000
      7   -36.9923    85.0250      1.000   6425.000   9641.000      0.989    41.5367     0.0004    -0.0004    25.0000    15.0000    15.0000    25.0000    25.0000    15.0000    15.0000    25.0000     0.0000     0.0000    -0.0015    20.7714    41.5329     1.6756    -0.1202    -0.3283    -1.1181    14.4503    14.4528    -0.0025     1.7459     0.0000     1.0000   100.000
      8   -37.1898    84.9252      1.000   9625.000   9614.000      0.986    41.5367     0.0004    -0.0004    25.0000    15.0000    15.0000    25.0000    25.0000    15.0000    15.0000    25.0000     0.0000     0.0000    -0.0015    20.7714    41.5329     1.6842    -0.1208    -0.3300    -1.1238    14.4503    14.4528    -0.0025     1.7454     0.0000     1.0000   100.000
      9   -37.3943    84.8245      1.000   9562.000   9510.000      0.975    41.5367     0.0004    -0.0004    25.0000    15.0000    15.0000    25.0000    25.0000    15.0000    15.0000    25.0000     0.0000     0.0000    -0.0015    20.7714    41.5330     1.6932    -0.1215    -0.3318    -1.1298    14.4503    14.4528    -0.0025     1.7460     0.0000     1.0000   100.000
     10   -37.5953    84.7249      1.000   6978.000   9408.000      0.965    41.5367     0.0004    -0.0004    25.0000    15.0000    15.0000    25.0000    25.0000    15.0000    15.0000    25.0000     0.0000     0.0000    -0.0015    20.7714    41.5329     1.7019    -0.1221    -0.3335    -1.1356    14.4503    14.4528    -0.0025     1.7463     0.0000     1.0000   100.000
     11   -37.7938    84.6246      1.000   3828.000   9459.000      0.970    41.5367     0.0004    -0.0004    25.0000    15.0000    15.0000    25.0000    25.0000    15.0000    15.0000    25.0000     0.0000     0.0000    -0.0016    20.7714    41.5329     1.7106    -0.1227    -0.3352    -1.1414    14.4503    14.4528    -0.0025     1.7466     0.0000     1.0000   100.000
     12   -37.9925    84.5253      1.000   1397.000   9507.000      0.975    41.5367     0.0004    -0.0004    25.0000    15.0000    15.0000    25.0000    25.0000    15.0000    15.0000    25.0000     0.0000     0.0000    -0.0016    20.7713    41.5329     1.7192    -0.1233    -0.3369    -1.1472    14.4503    14.4528    -0.0025     1.7469     0.0000     1.0000   100.000
     13   -38.1914    84.4253      1.000    317.000   9451.000      0.969    41.5367     0.0004    -0.0004    25.0000    15.0000    15.0000    25.0000    25.0000    15.0000    15.0000    25.0000     0.0000     0.0000    -0.0016    20.7713    41.5329     1.7279    -0.1239    -0.3386    -1.1530    14.4503    14.4528    -0.0025     1.7470     0.0000     1.0000   100.000
     14   -38.3916    84.3254      1.000     98.000   9498.000      0.974    41.5367     0.0004    -0.0004    25.0000    15.0000    15.0000    25.0000    25.0000    15.0000    15.0000    25.0000     0.0000     0.0000    -0.0016    20.7713    41.5329     1.7366    -0.1246    -0.3403    -1.1588    14.4503    14.4528    -0.0025     1.7471     0.0000     1.0000   100.000
     15   -38.5926    84.2253      1.000     58.000   9651.000      0.990    41.5367     0.0004    -0.0004    25.0000    15.0000    15.0000    25.0000    25.0000    15.0000    15.0000    25.0000     0.0000     0.0000    -0.0016    20.7713    41.5329     1.7454    -0.1252    -0.3420    -1.1646    14.4503    14.4528    -0.0025     1.7472     0.0000     1.0000   100.000
     16   -38.7914    84.1253      1.000     71.000   9624.000      0.987    41.5367     0.0004    -0.0004    25.0000    15.0000    15.0000    25.0000    25.0000    15.0000    15.0000    25.0000     0.0000     0.0000    -0.0016    20.7713    41.5329     1.7540    -0.1258    -0.3437    -1.1704    14.4503    14.4528    -0.0025     1.7472     0.0000     1.0000   100.000
     17   -38.9924    84.0251      1.000     55.000   9674.000      0.992    41.5367     0.0004    -0.0004    25.0000    15.0000    15.0000    25.0000    25.0000    15.0000    15.0000    25.0000     0.0000     0.0000    -0.0017    20.7713    41.5329     1.7628    -0.1264    -0.3454    -1.1762    14.4503    14.4528    -0.0025     1.7472     0.0000     1.0000   100.000
     18   -39.1956    83.9253      1.000     62.000   9584.000      0.983    41.5367     0.0004    -0.0004    25.0000    15.0000    15.0000    25.0000    25.0000    15.0000    15.0000    25.0000     0.0000     0.0000    -0.0016    20.7713    41.5329     1.7716    -0.1271    -0.3472    -1.1821    14.4503    14.4528    -0.0025     1.7470     0.0000     1.0000   100.000
     19   -39.3940    83.8247      1.000     46.000   9607.000      0.985    41.5367     0.0004    -0.0004    25.0000    15.0000    15.0000    25.0000    25.0000    15.0000    15.0000    25.0000     0.0000     0.0000    -0.0016    20.7713    41.5329     1.7802    -0.1277    -0.3488    -1.1879    14.4503    14.4528    -0.0025     1.7471     0.0000     1.0000   100.000
     20   -39.5904    83.7244      1.000     61.000   9683.000      0.993    41.5367     0.0004    -0.0004    25.0000    15.0000    15.0000    25.0000    25.0000    15.0000    15.0000    25.0000     0.0000     0.0000    -0.0017    20.7713    41.5329     1.7887    -0.1283    -0.3505    -1.1936    14.4503    14.4528    -0.0025     1.7471     0.0000     1.0000   100.000
     21   -39.7885    83.6247      1.000     59.000   9614.000      0.986    41.5367     0.0004    -0.0004    25.0000    15.0000    15.0000    25.0000    25.0000    15.0000    15.0000    25.0000     0.0000     0.0000    -0.0017    20.7713    41.5329     1.7973    -0.1289    -0.3521    -1.1993    14.4503    14.4528    -0.0025     1.7471     0.0000     1.0000   100.000
# Sum of Counts = 41426
# Center of Mass = -37.355139+/-0.259561
# Full Width Half-Maximum = 0.754502+/-0.134185
# 11:37:29 AM  5/1/2024   scan completed.
