# scan = 20
# date = 5/1/2024
# time = 12:54:36 PM
# proposal = 32275
# experiment = Low Temperature Magnetic Structure of CeCl3
# experiment_number = 1017
# command = scan slitb_rt 0 15 1 preset time 1
# builtin_command = scan slitb_rt 0 15 1 preset time 1
# users = Adam Aczel, David Mandrus, Matthew Cothrine, Stephen Nagler
# local_contact = A. Aczel
# scan_title = optimize pre-sample and post-sample slits
# monochromator = PG002
# analyzer = Pg002
# sense = +-+
# collimation = 40-40-40-80
# samplename = CeCl3
# sampletype = crystal
# samplemosaic = 30.000000
# latticeconstants = 7.432407,7.432407,4.311433,90.000000,90.000000,120.000000
# ubmatrix = -0.032121,-0.030765,0.225510,-0.128749,-0.132815,-0.054135,0.080800,-0.074501,0.003386
# mode = 0
# plane_normal = -0.008727,0.026172,0.999619
# ubconf = UB01May2024_120038PM.ini
# preset_type = normal
# preset_channel = time
# preset_value = 1.000000
# def_x = slitb_rt
# def_y = detector
# col_headers =
#   Pt.   slitb_rt       time   detector    monitor        mcu         m2         s1         s2        sgl        sgu   slitb_bt   slitb_lf   slitb_tp   slita_bt   slita_lf   slita_rt   slita_tp        stl        stu         sz         a1         a2          q          h          k          l         ei         ef          e        vti     sample       temp dr_tsample    dr_temp
      1     0.0000      1.000   7170.000   9603.000      0.985    41.5367   -19.9795   -66.9847     0.5008     1.5001    25.0000    15.0000    25.0000    25.0000    15.0000    15.0000    25.0000     0.0000     0.0000     0.0017    20.7712    41.5370     2.9145    -0.0000    -0.0001     1.9999    14.4503    14.4501     0.0002     1.7407     0.0000     1.0000     1.1362     0.000
      2     1.0000      1.000  10757.000   9600.000      0.984    41.5367   -19.9795   -66.9847     0.5008     1.5001    25.0000    15.0000    25.0000    25.0000    15.0000    15.0000    25.0000     0.0000     0.0000     0.0017    20.7712    41.5370     2.9145    -0.0000    -0.0001     1.9999    14.4503    14.4501     0.0002     1.7402     0.0000     1.0000     1.1362     0.000
      3     2.0000      1.000  13968.000   9560.000      0.980    41.5367   -19.9795   -66.9847     0.5008     1.5001    25.0000    15.0000    25.0000    25.0000    15.0000    15.0000    25.0000     0.0000     0.0000     0.0017    20.7712    41.5370     2.9145    -0.0000    -0.0001     1.9999    14.4503    14.4501     0.0002     1.7397     0.0000     1.0000     1.1362     0.000
      4     3.0000      1.000  16333.000   9637.000      0.988    41.5367   -19.9795   -66.9847     0.5008     1.5001    25.0000    15.0000    25.0000    25.0000    15.0000    15.0000    25.0000     0.0000     0.0000     0.0016    20.7712    41.5370     2.9145    -0.0000    -0.0001     1.9999    14.4503    14.4501     0.0002     1.7390     0.0000     1.0000     1.1362     0.000
      5     4.0000      1.000  17619.000   9600.000      0.984    41.5367   -19.9795   -66.9847     0.5008     1.5001    25.0000    15.0000    25.0000    25.0000    15.0000    15.0000    25.0000     0.0000     0.0000     0.0016    20.7712    41.5370     2.9145    -0.0000    -0.0001     1.9999    14.4503    14.4501     0.0002     1.7388     0.0000     1.0000     1.1362     0.000
      6     5.0000      1.000  18244.000   9607.000      0.985    41.5367   -19.9796   -66.9847     0.5008     1.5001    25.0000    15.0000    25.0000    25.0000    15.0000    15.0000    25.0000     0.0000     0.0000     0.0017    20.7712    41.5370     2.9145    -0.0000    -0.0001     1.9999    14.4503    14.4501     0.0002     1.7384     0.0000     1.0000     1.1362     0.000
      7     6.0000      1.000  18456.000   9582.000      0.983    41.5367   -19.9795   -66.9847     0.5008     1.5001    25.0000    15.0000    25.0000    25.0000    15.0000    15.0000    25.0000     0.0000     0.0000     0.0017    20.7712    41.5370     2.9145    -0.0000    -0.0001     1.9999    14.4503    14.4501     0.0002     1.7378     0.0000     1.0000     1.1362     0.000
      8     7.0000      1.000  18437.000   9641.000      0.989    41.5367   -19.9795   -66.9847     0.5008     1.5001    25.0000    15.0000    25.0000    25.0000    15.0000    15.0000    25.0000     0.0000     0.0000     0.0017    20.7712    41.5370     2.9145    -0.0000    -0.0001     1.9999    14.4503    14.4501     0.0002     1.7373     0.0000     1.0000     1.1362     0.000
      9     8.0000      1.000  18615.000   9533.000      0.978    41.5367   -19.9796   -66.9847     0.5008     1.5001    25.0000    15.0000    25.0000    25.0000    15.0000    15.0000    25.0000     0.0000     0.0000     0.0017    20.7712    41.5370     2.9145    -0.0000    -0.0001     1.9999    14.4503    14.4501     0.0002     1.7370     0.0000     1.0000     1.1362     0.000
     10     9.0000      1.000  18588.000   9585.000      0.983    41.5367   -19.9795   -66.9847     0.5008     1.5001    25.0000    15.0000    25.0000    25.0000    15.0000    15.0000    25.0000     0.0000     0.0000     0.0016    20.7712    41.5370     2.9145    -0.0000    -0.0001     1.9999    14.4503    14.4501     0.0002     1.7366     0.0000     1.0000     1.1362     0.000
     11    10.0000      1.000  18464.000   9592.000      0.984    41.5367   -19.9795   -66.9847     0.5008     1.5001    25.0000    15.0000    25.0000    25.0000    15.0000    15.0000    25.0000     0.0000     0.0000     0.0016    20.7712    41.5370     2.9145    -0.0000    -0.0001     1.9999    14.4503    14.4501     0.0002     1.7361     0.0000     1.0000     1.1362     0.000
     12    11.0000      1.000  18317.000   9669.000      0.991    41.5367   -19.9795   -66.9847     0.5008     1.5001    25.0000    15.0000    25.0000    25.0000    15.0000    15.0000    25.0000     0.0000     0.0000     0.0016    20.7712    41.5370     2.9145    -0.0000    -0.0001     1.9999    14.4503    14.4501     0.0002     1.7358     0.0000     1.0000     1.1362     0.000
     13    12.0000      1.000  18430.000   9710.000      0.996    41.5367   -19.9795   -66.9847     0.5008     1.5001    25.0000    15.0000    25.0000    25.0000    15.0000    15.0000    25.0000     0.0000     0.0000     0.0017    20.7712    41.5370     2.9145    -0.0000    -0.0001     1.9999    14.4503    14.4501     0.0002     1.7355     0.0000     1.0000     1.1362     0.000
     14    13.0000      1.000  18524.000   9633.000      0.988    41.5367   -19.9795   -66.9847     0.5008     1.5001    25.0000    15.0000    25.0000    25.0000    15.0000    15.0000    25.0000     0.0000     0.0000     0.0016    20.7712    41.5370     2.9145    -0.0000    -0.0001     1.9999    14.4503    14.4501     0.0002     1.7352     0.0000     1.0000     1.1362     0.000
     15    14.0000      1.000  18333.000   9658.000      0.990    41.5367   -19.9795   -66.9847     0.5008     1.5001    25.0000    15.0000    25.0000    25.0000    15.0000    15.0000    25.0000     0.0000     0.0000     0.0017    20.7712    41.5370     2.9145    -0.0000    -0.0001     1.9999    14.4503    14.4501     0.0002     1.7351     0.0000     1.0000     1.1362     0.000
     16    15.0000      1.000  18332.000   9757.000      1.000    41.5367   -19.9795   -66.9847     0.5008     1.5001    25.0000    15.0000    25.0000    25.0000    15.0000    15.0000    25.0000     0.0000     0.0000     0.0017    20.7712    41.5370     2.9145    -0.0000    -0.0001     1.9999    14.4503    14.4501     0.0002     1.7355     0.0000     1.0000     1.1362     0.000
# Sum of Counts = 268587
# Center of Mass = 8.135673+/-0.023712
# Full Width Half-Maximum = 8.632773+/-0.018239
# 12:55:34 PM  5/1/2024   scan completed.
