# scan = 281
# date = 5/3/2024
# time = 7:40:29 PM
# proposal = 32275
# experiment = Low Temperature Magnetic Structure of CeCl3
# experiment_number = 1017
# command = scanrel s1 1.5 -1.5 0.15 e 0 preset mcu 10
# builtin_command = scan s1 @(s1)+1.5 @(s1)+-1.5 0.150000
# users = Adam Aczel, David Mandrus, Matthew Cothrine, Stephen Nagler
# local_contact = A. Aczel
# scan_title = final scans of 1/3 1/3 1/2 while cooling at end of cycle
# monochromator = PG002
# analyzer = Pg002
# sense = +-+
# collimation = 40-40-40-80
# samplename = CeCl3
# sampletype = crystal
# samplemosaic = 30.000000
# latticeconstants = 7.432407,7.432407,4.311433,90.000000,90.000000,120.000000
# ubmatrix = -0.032121,-0.030765,0.225510,-0.128749,-0.132815,-0.054135,0.080800,-0.074501,0.003386
# mode = 0
# plane_normal = -0.008727,0.026172,0.999619
# ubconf = UB01May2024_120038PM.ini
# preset_type = normal 
# preset_channel = mcu
# preset_value = 10.000000
# def_x = s1
# def_y = detector
# col_headers = 
#   Pt.         s1       time   detector    monitor        mcu         m2         s2        sgl        sgu   slitb_bt   slitb_lf   slitb_rt   slitb_tp   slita_bt   slita_lf   slita_rt   slita_tp        stl        stu         sz         a1         a2          q          h          k          l         ei         ef          e        vti     sample       temp dr_tsample    dr_temp
      1    42.6137     10.246    541.000  97525.000     10.000    41.5367   -20.0814     0.5007     1.5000    25.0000     5.0000     8.0000    25.0000    25.0000     8.0000     5.0000    25.0000     5.0000    -5.0000     0.0037    20.7715    41.5369     0.9208     0.3438     0.3438     0.4901    14.4503    14.4502     0.0001     1.6768     0.0000     1.0000     0.0494     0.040
      2    42.4628     10.209    553.000  97525.000     10.000    41.5367   -20.0814     0.5007     1.5000    25.0000     5.0000     8.0000    25.0000    25.0000     8.0000     5.0000    25.0000     5.0000    -5.0000     0.0036    20.7715    41.5369     0.9208     0.3427     0.3427     0.4911    14.4503    14.4502     0.0001     1.6764     0.0000     1.0000     0.0494     0.040
      3    42.3126     10.300    572.000  97525.000     10.000    41.5367   -20.0814     0.5007     1.5000    25.0000     5.0000     8.0000    25.0000    25.0000     8.0000     5.0000    25.0000     5.0000    -5.0000     0.0035    20.7715    41.5369     0.9208     0.3416     0.3415     0.4922    14.4503    14.4502     0.0001     1.6767     0.0000     1.0000     0.0494     0.040
      4    42.1630      0.000      0.000      0.000     10.000    41.5367   -20.0814     0.5007     1.5000    25.0000     5.0000     8.0000    25.0000    25.0000     8.0000     5.0000    25.0000     5.0000    -5.0000     0.0034    20.7715    41.5369     0.9208     0.3405     0.3404     0.4932    14.4503    14.4502     0.0001     1.6766     0.0000     1.0000     0.0494     0.040
# Sum of Counts = 1666
# Center of Mass = 42.460232+/-1.471163
# Full Width Half-Maximum = 0.246036+/-1.700284
# 8:52:40 AM  5/6/2024   scan stopped!!
