# scan = 13
# date = 3/5/2025
# time = 5:14:59 PM
# proposal = 35218
# experiment = Spin-phonon coupling in NiO
# experiment_number = 970
# command = scan h 0 k 0 l 1.3 e 15 25 0.5 preset countfile Px_60mcu
# builtin_command = scan h 0 k 0 l 1.3 e 15 25 0.5 preset countfile px_60mcu
# users = Chen Li, Masaaki Matsuda, Qiyang Sun, Wei Tian
# local_contact = Masa Matsuda
# scan_title = 0 0 1.3 E-scan Px NSF/SF test
# monochromator = Heusler
# analyzer = Heusler
# sense = +-+
# collimation = 48-80-999-999
# samplename = NiO
# sampletype = crystal
# samplemosaic = 30.000000
# latticeconstants = 4.191946,4.191946,4.191946,90.000000,90.000000,90.000000
# ubmatrix = -0.166074,-0.169018,0.027567,-0.015033,-0.023864,-0.236880,0.170590,-0.166646,0.005962
# mode = 0
# plane_normal = 0.007126,0.021375,0.816262
# ubconf = UB05Mar2025_45400PM.ini
# preset_type = countfile
# countfile = guide 16 parq
# countfile = drive hguide 0.476*sqrt(@(ei)) vguide 1.9
# countfile = count preset mcu 60
# countfile = drive hguide 0 vguide 0
# countfile = count preset mcu 60
# def_x = e
# def_y = detector_1
# col_headers =
#   Pt.          h          k          l          e     time_1 detector_1  monitor_1      mcu_1     time_2 detector_2  monitor_2      mcu_2         m1         m2       marc     mtrans     mfocus     fguide     hguide     vguide    tbguide     aguide     bguide     cguide fguide_mode hguide_mode vguide_mode tbguide_mode aguide_mode bguide_mode cguide_mode fguide_out hguide_out vguide_out tbguide_out aguide_out bguide_out cguide_out fguide_volt hguide_volt vguide_volt tbguide_volt aguide_volt bguide_volt cguide_volt         s1         s2        sgl        sgu slit_pre_bt slit_pre_lf slit_pre_rt slit_pre_tp        stl        stu         a1         a2          q         ei         ef fguide_amps hguide_amps vguide_amps tbguide_amps aguide_amps bguide_amps cguide_amps    coldtip     sample       temp
      1    -0.0002    -0.0002     1.2998    14.9940     71.552      5.000  53515.000     60.001     71.704      6.000  53515.000     60.001   -49.1584    27.9424     0.5070     9.0000   279.9974     4.5000     2.6159     1.9000     0.0000     0.4717     3.8962   -18.6134     1.0000     1.0000     1.0000     1.0000     1.0000     1.0000     1.0000     1.0000     1.0000     1.0000     1.0000     1.0000     1.0000     1.0000    20.0000    20.0000    20.0000    20.0000    20.0000    20.0000    20.0000    34.9483   -29.0465    -0.5000     1.5000    18.0000     9.0000     9.0000    18.0000    -0.0005     0.0000    20.0706    40.1325     1.9483    29.7001    14.7061     4.5112     2.6204     1.9015     0.0063     0.4718     3.9050   -18.6511     0.0000     0.0000   300.000
      2    -0.0002    -0.0002     1.2999    15.4944      0.000      0.000      0.000     60.000   -49.1584    27.7053     0.5070     9.0000   279.9974     4.5000     0.0000     0.0000     0.0000     0.5536     3.8335   -18.7100     1.0000     1.0000     1.0000     1.0000     1.0000     1.0000     1.0000     1.0000     1.0000     1.0000     1.0000     1.0000     1.0000     1.0000    20.0000    20.0000    20.0000    20.0000    20.0000    20.0000    20.0000    34.0770   -28.5036    -0.5000     1.5000    18.0000     9.0000     9.0000    18.0000    -0.0005     0.0000    20.0706    40.1325     1.9485    30.2006    14.7061     4.5116     0.0010     0.0042     0.0063     0.5540     3.8393   -18.7485     0.0000     0.0000   300.000
# Sum of Counts = 5
# Center of Mass = 14.994000+/-9.483038
# Full Width Half-Maximum = 0.000000+/-NaN
# 5:18:44 PM  3/5/2025   scan stopped!!
