# scan = 2
# date = 3/5/2025
# time = 4:45:42 PM
# proposal = 35218
# experiment = Spin-phonon coupling in NiO
# experiment_number = 970
# command = scanrel sgl 3 -3 0.5
# builtin_command = scan sgl @(sgl)+3 @(sgl)+-3 0.500000
# users = Chen Li, Masaaki Matsuda, Qiyang Sun, Wei Tian
# local_contact = Masa Matsuda
# scan_title = sample alignment
# monochromator = Heusler
# analyzer = Heusler
# sense = +-+
# collimation = 48-80-999-999
# samplename = NiO
# sampletype = crystal
# samplemosaic = 30.000000
# latticeconstants = 4.178000,4.178000,4.178000,90.000000,90.000000,90.000000
# ubmatrix = -0.168115,-0.168112,0.027636,-0.019542,-0.019542,-0.237748,0.169244,-0.169247,0.000000
# mode = 0
# plane_normal = -0.000009,0.000000,1.000000
# ubconf = UB05Mar2025_44345PM.ini
# preset_type = normal 
# preset_channel = time
# preset_value = 1.000000
# def_x = sgl
# def_y = detector
# col_headers = 
#   Pt.        sgl       time   detector    monitor        mcu         m1         m2       marc     mtrans     mfocus     fguide     hguide     vguide    tbguide     aguide     bguide     cguide fguide_mode hguide_mode vguide_mode tbguide_mode aguide_mode bguide_mode cguide_mode fguide_out hguide_out vguide_out tbguide_out aguide_out bguide_out cguide_out fguide_volt hguide_volt vguide_volt tbguide_volt aguide_volt bguide_volt cguide_volt         s1         s2        sgu slit_pre_bt slit_pre_lf slit_pre_rt slit_pre_tp        stl        stu         a1         a2          q          h          k          l         ei         ef          e fguide_amps hguide_amps vguide_amps tbguide_amps aguide_amps bguide_amps cguide_amps    coldtip     sample       temp
      1     0.0010      1.000  22712.000    874.000      0.980   -49.1584    41.9677     0.5070     9.0000   279.9974     4.5000     0.0000     0.0000     5.0991     0.0000     0.0000     0.0000     1.0000     1.0000     1.0000     1.0000     1.0000     1.0000     1.0000     1.0000     1.0000     1.0000     1.0000     1.0000     1.0000     1.0000    20.0000    20.0000    20.0000    20.0000    20.0000    20.0000    20.0000    47.2771   -72.2006     0.0000    15.0000    10.0000    10.0000    15.0000    -0.0005     0.0000    20.9839    41.9595     3.0081     0.0000     0.0000     2.0002    13.5001    13.5051    -0.0051     4.5116     0.0010     0.0046     5.1158    -0.0007    -0.0003     0.0000     0.0000     0.0000   300.000
      2    -0.4995      1.000  22898.000    907.000      1.017   -49.1584    41.9677     0.5070     9.0000   279.9974     4.5000     0.0000     0.0000     5.0991     0.0000     0.0000     0.0000     1.0000     1.0000     1.0000     1.0000     1.0000     1.0000     1.0000     1.0000     1.0000     1.0000     1.0000     1.0000     1.0000     1.0000    20.0000    20.0000    20.0000    20.0000    20.0000    20.0000    20.0000    47.2771   -72.2006     0.0000    15.0000    10.0000    10.0000    15.0000    -0.0005     0.0000    20.9839    41.9595     3.0081    -0.0014     0.0014     2.0002    13.5001    13.5051    -0.0051     4.5112     0.0013     0.0042     5.1158     0.0003    -0.0007    -0.0006     0.0000     0.0000   300.000
      3    -0.9990      1.000  23088.000    924.000      1.036   -49.1584    41.9677     0.5070     9.0000   279.9974     4.5000     0.0000     0.0000     5.0991     0.0000     0.0000     0.0000     1.0000     1.0000     1.0000     1.0000     1.0000     1.0000     1.0000     1.0000     1.0000     1.0000     1.0000     1.0000     1.0000     1.0000    20.0000    20.0000    20.0000    20.0000    20.0000    20.0000    20.0000    47.2771   -72.2006     0.0000    15.0000    10.0000    10.0000    15.0000    -0.0005     0.0000    20.9839    41.9595     3.0081    -0.0028     0.0029     2.0002    13.5001    13.5051    -0.0051     4.5116     0.0010     0.0046     5.1154     0.0000     0.0010     0.0000     0.0000     0.0000   300.000
      4    -1.5000      1.000  20386.000    933.000      1.046   -49.1584    41.9677     0.5070     9.0000   279.9974     4.5000     0.0000     0.0000     5.0991     0.0000     0.0000     0.0000     1.0000     1.0000     1.0000     1.0000     1.0000     1.0000     1.0000     1.0000     1.0000     1.0000     1.0000     1.0000     1.0000     1.0000    20.0000    20.0000    20.0000    20.0000    20.0000    20.0000    20.0000    47.2771   -72.2006     0.0000    15.0000    10.0000    10.0000    15.0000    -0.0005     0.0000    20.9839    41.9595     3.0081    -0.0042     0.0043     2.0002    13.5001    13.5051    -0.0051     4.5112     0.0010     0.0042     5.1158     0.0003     0.0007     0.0000     0.0000     0.0000   300.000
      5    -1.9995      0.000      0.000      0.000      0.000   -49.1584    41.9677     0.5070     9.0000   279.9974     4.5000     0.0000     0.0000     5.0991     0.0000     0.0000     0.0000     1.0000     1.0000     1.0000     1.0000     1.0000     1.0000     1.0000     1.0000     1.0000     1.0000     1.0000     1.0000     1.0000     1.0000    20.0000    20.0000    20.0000    20.0000    20.0000    20.0000    20.0000    47.2771   -72.2006     0.0000    15.0000    10.0000    10.0000    15.0000    -0.0005     0.0000    20.9839    41.9595     3.0081    -0.0056     0.0058     2.0002    13.5001    13.5051    -0.0051     4.5116     0.0013     0.0042     5.1161     0.0000     0.0003    -0.0006     0.0000     0.0000   300.000
# Sum of Counts = 89084
# Center of Mass = -0.730308+/-0.003923
# Full Width Half-Maximum = 1.103314+/-0.004914
# 4:45:58 PM  3/5/2025   scan stopped!!
