# scan = 34
# date = 9/19/2023
# time = 10:12:44 PM
# proposal = 30730
# experiment = Low Temperature Magnetic Structure of CeCl3
# experiment_number = 998
# command = scan h 0.6666 k 0.6666 l 0.25 1.75 0.005 e 0 preset time 30
# builtin_command = scan h 0.6666 k 0.6666 l 0.25 1.75 0.005 e 0 preset time 30
# users = Adam Aczel, David Mandrus, Matthew Cothrine, Stephen Nagler
# local_contact = A. Aczel
# scan_title = CeBr3, (2/3 2/3 L) scan, T = 0.04 K
# monochromator = PG002
# analyzer = Pg002
# sense = +-+
# collimation = 40-40-40-80
# samplename = CeBr3
# sampletype = crystal
# samplemosaic = 30.000000
# latticeconstants = 7.911813,7.911813,4.442653,90.000000,90.000000,120.000000
# ubmatrix = 0.075384,0.080477,-0.177039,-0.099473,-0.099471,-0.138870,-0.075649,0.070209,0.006183
# mode = 0
# plane_normal = 0.034896,0.000010,0.999390
# ubconf = UB19Sep2023_24416PM.ini
# preset_type = normal
# preset_channel = time
# preset_value = 30.000000
# def_x = l
# def_y = detector
# col_headers =
#   Pt.          h          k          l          e       time   detector    monitor        mcu         m2         s1         s2        sgl        sgu   slitb_bt   slitb_lf   slitb_rt   slitb_tp   slita_bt   slita_lf   slita_rt   slita_tp        stl        stu         sz         a1         a2          q         ei         ef        vti     sample       temp dr_tsample    dr_temp
      1     0.6666     0.6666     0.2500     0.0001     30.000   1259.000 224283.000     32.505    41.5367    58.1716   -24.4029    -1.9995     0.0009    26.0000     4.0000     9.0000    22.0000    26.0000    10.0000     5.0000    20.0000     3.0005     1.0000    -0.4992    20.7744    41.5369     1.1162    14.4503    14.4501     1.7016     0.0000     1.0000     0.0385     0.000
      2     0.6666     0.6666     0.2550     0.0001     30.000   1205.000 225512.000     32.683    41.5367    58.4903   -24.4515    -1.9995     0.0009    26.0000     4.0000     9.0000    22.0000    26.0000    10.0000     5.0000    20.0000     3.0005     1.0000    -0.4989    20.7743    41.5369     1.1184    14.4503    14.4502     1.7015     0.0000     1.0000     0.0385     0.000
      3     0.6666     0.6666     0.2600     0.0001     30.000   1215.000 225110.000     32.625    41.5367    58.8066   -24.5048    -1.9995     0.0009    26.0000     4.0000     9.0000    22.0000    26.0000    10.0000     5.0000    20.0000     3.0005     1.0000    -0.4989    20.7743    41.5369     1.1208    14.4503    14.4502     1.7014     0.0000     1.0000     0.0385     0.000
      4     0.6666     0.6666     0.2650     0.0001     30.000   1261.000 224547.000     32.543    41.5367    59.1215   -24.5566    -1.9995     0.0009    26.0000     4.0000     9.0000    22.0000    26.0000    10.0000     5.0000    20.0000     3.0005     1.0000    -0.4988    20.7743    41.5369     1.1232    14.4503    14.4502     1.7013     0.0000     1.0000     0.0382     0.000
      5     0.6666     0.6666     0.2700     0.0001     30.000   1229.000 224068.000     32.474    41.5367    59.4350   -24.6093    -1.9995     0.0009    26.0000     4.0000     9.0000    22.0000    26.0000    10.0000     5.0000    20.0000     3.0005     1.0000    -0.4989    20.7742    41.5369     1.1255    14.4503    14.4502     1.7012     0.0000     1.0000     0.0382     0.000
      6     0.6666     0.6666     0.2750     0.0001     30.000   1239.000 224604.000     32.551    41.5367    59.7458   -24.6633    -1.9995     0.0009    26.0000     4.0000     9.0000    22.0000    26.0000    10.0000     5.0000    20.0000     3.0005     1.0000    -0.4988    20.7742    41.5369     1.1280    14.4503    14.4502     1.7012     0.0000     1.0000     0.0382     0.000
      7     0.6666     0.6666     0.2800     0.0001     30.000   1253.000 225198.000     32.637    41.5367    60.0552   -24.7167    -1.9995     0.0009    26.0000     4.0000     9.0000    22.0000    26.0000    10.0000     5.0000    20.0000     3.0006     1.0000    -0.4989    20.7742    41.5369     1.1304    14.4503    14.4502     1.7011     0.0000     1.0000     0.0382     0.000
      8     0.6666     0.6666     0.2850     0.0001     30.000   1246.000 225496.000     32.681    41.5367    60.3617   -24.7724    -1.9995     0.0009    26.0000     4.0000     9.0000    22.0000    26.0000    10.0000     5.0000    20.0000     3.0005     1.0000    -0.4990    20.7742    41.5369     1.1329    14.4503    14.4502     1.7011     0.0000     1.0000     0.0381     0.000
      9     0.6666     0.6666     0.2900     0.0001     30.000   1212.000 225912.000     32.741    41.5367    60.6671   -24.8286    -1.9995     0.0009    26.0000     4.0000     9.0000    22.0000    26.0000    10.0000     5.0000    20.0000     3.0005     1.0000    -0.4990    20.7742    41.5369     1.1354    14.4503    14.4502     1.7010     0.0000     1.0000     0.0380     0.000
     10     0.6666     0.6666     0.2950     0.0001     30.000   1264.000 225466.000     32.676    41.5367    60.9704   -24.8863    -1.9995     0.0009    26.0000     4.0000     9.0000    22.0000    26.0000    10.0000     5.0000    20.0000     3.0005     1.0000    -0.4990    20.7742    41.5369     1.1380    14.4503    14.4502     1.7011     0.0000     1.0000     0.0380     0.000
     11     0.6665     0.6666     0.3000     0.0001     30.000   1250.000 224690.000     32.564    41.5367    61.2722   -24.9424    -1.9995     0.0009    26.0000     4.0000     9.0000    22.0000    26.0000    10.0000     5.0000    20.0000     3.0005     1.0000    -0.4990    20.7742    41.5369     1.1405    14.4503    14.4502     1.7010     0.0000     1.0000     0.0386     0.000
     12     0.6666     0.6666     0.3050     0.0001     30.000   1247.000 225128.000     32.627    41.5367    61.5716   -25.0022    -1.9995     0.0009    26.0000     4.0000     9.0000    22.0000    26.0000    10.0000     5.0000    20.0000     3.0006     1.0000    -0.4990    20.7742    41.5369     1.1432    14.4503    14.4502     1.7010     0.0000     1.0000     0.0386     0.000
     13     0.6666     0.6666     0.3100     0.0001     30.000   1233.000 226002.000     32.754    41.5367    61.8694   -25.0614    -1.9995     0.0009    26.0000     4.0000     9.0000    22.0000    26.0000    10.0000     5.0000    20.0000     3.0006     1.0000    -0.4989    20.7742    41.5369     1.1459    14.4503    14.4502     1.7010     0.0000     1.0000     0.0379     0.000
     14     0.6666     0.6666     0.3150     0.0001     30.000   1191.000 224543.000     32.542    41.5367    62.1647   -25.1228    -1.9995     0.0009    26.0000     4.0000     9.0000    22.0000    26.0000    10.0000     5.0000    20.0000     3.0005     1.0000    -0.4990    20.7742    41.5369     1.1487    14.4503    14.4502     1.7010     0.0000     1.0000     0.0379     0.000
     15     0.6666     0.6666     0.3200     0.0001     30.000   1237.000 225426.000     32.670    41.5367    62.4587   -25.1836    -1.9995     0.0009    26.0000     4.0000     9.0000    22.0000    26.0000    10.0000     5.0000    20.0000     3.0006     1.0000    -0.4989    20.7742    41.5369     1.1514    14.4503    14.4502     1.7009     0.0000     1.0000     0.0381     0.000
     16     0.6666     0.6666     0.3250     0.0001     30.000   1212.000 224525.000     32.540    41.5367    62.7501   -25.2469    -1.9995     0.0009    26.0000     4.0000     9.0000    22.0000    26.0000    10.0000     5.0000    20.0000     3.0006     1.0000    -0.4992    20.7741    41.5369     1.1542    14.4503    14.4502     1.7008     0.0000     1.0000     0.0381     0.000
     17     0.6666     0.6666     0.3300     0.0001     30.000   1207.000 224819.000     32.582    41.5367    63.0395   -25.3088    -1.9995     0.0009    26.0000     4.0000     9.0000    22.0000    26.0000    10.0000     5.0000    20.0000     3.0006     1.0000    -0.4990    20.7741    41.5369     1.1570    14.4503    14.4502     1.7008     0.0000     1.0000     0.0379     0.000
     18     0.6666     0.6666     0.3350     0.0001     30.000   1232.000 225137.000     32.629    41.5367    63.3278   -25.3747    -1.9995     0.0009    26.0000     4.0000     9.0000    22.0000    26.0000    10.0000     5.0000    20.0000     3.0005     1.0000    -0.4992    20.7741    41.5369     1.1600    14.4503    14.4502     1.7007     0.0000     1.0000     0.0381     0.000
     19     0.6666     0.6666     0.3400     0.0001     30.000   1283.000 225061.000     32.618    41.5367    63.6138   -25.4385    -1.9995     0.0009    26.0000     4.0000     9.0000    22.0000    26.0000    10.0000     5.0000    20.0000     3.0006     1.0000    -0.4989    20.7741    41.5369     1.1629    14.4503    14.4502     1.7020     0.0000     1.0000     0.0381     0.000
     20     0.6666     0.6666     0.3450     0.0001     30.000   1251.000 224418.000     32.524    41.5367    63.8969   -25.5024    -1.9995     0.0009    26.0000     4.0000     9.0000    22.0000    26.0000    10.0000     5.0000    20.0000     3.0006     1.0000    -0.4992    20.7741    41.5369     1.1657    14.4503    14.4502     1.7029     0.0000     1.0000     0.0378     0.000
     21     0.6666     0.6666     0.3500     0.0001     30.000   1289.000 225785.000     32.722    41.5367    64.1788   -25.5692    -1.9995     0.0009    26.0000     4.0000     9.0000    22.0000    26.0000    10.0000     5.0000    20.0000     3.0006     1.0000    -0.4990    20.7741    41.5369     1.1687    14.4503    14.4502     1.7035     0.0000     1.0000     0.0378     0.000
     22     0.6666     0.6666     0.3550     0.0001     30.000   1320.000 223979.000     32.461    41.5367    64.4584   -25.6363    -1.9995     0.0009    26.0000     4.0000     9.0000    22.0000    26.0000    10.0000     5.0000    20.0000     3.0006     1.0000    -0.4994    20.7741    41.5369     1.1717    14.4503    14.4502     1.7039     0.0000     1.0000     0.0379     0.000
     23     0.6666     0.6666     0.3600     0.0001     30.000   1216.000 224296.000     32.507    41.5367    64.7361   -25.7051    -1.9995     0.0009    26.0000     4.0000     9.0000    22.0000    26.0000    10.0000     5.0000    20.0000     3.0006     1.0000    -0.4991    20.7741    41.5369     1.1748    14.4503    14.4502     1.7042     0.0000     1.0000     0.0379     0.000
     24     0.6666     0.6666     0.3650     0.0001     30.000   1241.000 224390.000     32.520    41.5367    65.0120   -25.7727    -1.9995     0.0009    26.0000     4.0000     9.0000    22.0000    26.0000    10.0000     5.0000    20.0000     3.0006     1.0000    -0.4992    20.7741    41.5369     1.1779    14.4503    14.4502     1.7045     0.0000     1.0000     0.0377     0.000
     25     0.6666     0.6666     0.3700     0.0001     30.000   1230.000 225311.000     32.654    41.5367    65.2856   -25.8426    -1.9995     0.0009    26.0000     4.0000     9.0000    22.0000    26.0000    10.0000     5.0000    20.0000     3.0006     1.0000    -0.4991    20.7741    41.5369     1.1810    14.4503    14.4502     1.7047     0.0000     1.0000     0.0377     0.000
     26     0.6666     0.6666     0.3750     0.0001     30.000   1239.000 224122.000     32.481    41.5367    65.5573   -25.9134    -1.9995     0.0009    26.0000     4.0000     9.0000    22.0000    26.0000    10.0000     5.0000    20.0000     3.0006     1.0000    -0.4992    20.7741    41.5369     1.1842    14.4503    14.4502     1.7049     0.0000     1.0000     0.0381     0.000
     27     0.6666     0.6666     0.3800     0.0001     30.000   1249.000 225449.000     32.674    41.5367    65.8269   -25.9841    -1.9995     0.0009    26.0000     4.0000     9.0000    22.0000    26.0000    10.0000     5.0000    20.0000     3.0006     1.0000    -0.4992    20.7741    41.5369     1.1874    14.4503    14.4502     1.7050     0.0000     1.0000     0.0381     0.000
     28     0.6666     0.6666     0.3850     0.0001     30.000   1229.000 224961.000     32.603    41.5367    66.0942   -26.0563    -1.9995     0.0009    26.0000     4.0000     9.0000    22.0000    26.0000    10.0000     5.0000    20.0000     3.0005     1.0000    -0.4994    20.7741    41.5369     1.1906    14.4503    14.4502     1.7051     0.0000     1.0000     0.0378     0.000
     29     0.6666     0.6666     0.3900     0.0001     30.000   1197.000 225196.000     32.637    41.5367    66.3603   -26.1280    -1.9995     0.0009    26.0000     4.0000     9.0000    22.0000    26.0000    10.0000     5.0000    20.0000     3.0006     1.0000    -0.4991    20.7740    41.5369     1.1938    14.4503    14.4502     1.7052     0.0000     1.0000     0.0379     0.000
     30     0.6666     0.6666     0.3950     0.0001     30.000   1330.000 224581.000     32.548    41.5367    66.6235   -26.2019    -1.9995     0.0009    26.0000     4.0000     9.0000    22.0000    26.0000    10.0000     5.0000    20.0000     3.0006     1.0000    -0.4992    20.7741    41.5369     1.1971    14.4503    14.4502     1.7053     0.0000     1.0000     0.0379     0.000
     31     0.6666     0.6666     0.4000     0.0001     30.000   1253.000 225112.000     32.625    41.5367    66.8853   -26.2760    -1.9995     0.0009    26.0000     4.0000     9.0000    22.0000    26.0000    10.0000     5.0000    20.0000     3.0006     1.0000    -0.4991    20.7740    41.5369     1.2005    14.4503    14.4502     1.7054     0.0000     1.0000     0.0379     0.000
     32     0.6666     0.6666     0.4050     0.0001     30.000   1340.000 224543.000     32.542    41.5367    67.1451   -26.3485    -1.9995     0.0009    26.0000     4.0000     9.0000    22.0000    26.0000    10.0000     5.0000    20.0000     3.0005     1.0000    -0.4995    20.7740    41.5369     1.2037    14.4503    14.4502     1.7054     0.0000     1.0000     0.0379     0.000
     33     0.6666     0.6666     0.4100     0.0001     30.000   1254.000 224895.000     32.593    41.5367    67.4024   -26.4246    -1.9995     0.0009    26.0000     4.0000     9.0000    22.0000    26.0000    10.0000     5.0000    20.0000     3.0006     1.0000    -0.4991    20.7740    41.5369     1.2071    14.4503    14.4502     1.7055     0.0000     1.0000     0.0379     0.000
     34     0.6666     0.6666     0.4150     0.0001     30.000   1222.000 224945.000     32.601    41.5367    67.6577   -26.5004    -1.9995     0.0009    26.0000     4.0000     9.0000    22.0000    26.0000    10.0000     5.0000    20.0000     3.0005     1.0000    -0.4993    20.7740    41.5369     1.2105    14.4503    14.4502     1.7055     0.0000     1.0000     0.0379     0.000
     35     0.6666     0.6666     0.4200     0.0001     30.000   1232.000 225088.000     32.621    41.5367    67.9120   -26.5762    -1.9995     0.0009    26.0000     4.0000     9.0000    22.0000    26.0000    10.0000     5.0000    20.0000     3.0006     1.0000    -0.4992    20.7740    41.5369     1.2139    14.4503    14.4502     1.7055     0.0000     1.0000     0.0378     0.000
     36     0.6665     0.6665     0.4249     0.0001     30.000   1228.000 225401.000     32.667    41.5367    68.1628   -26.6525    -1.9995     0.0009    26.0000     4.0000     9.0000    22.0000    26.0000    10.0000     5.0000    20.0000     3.0006     1.0000    -0.4993    20.7740    41.5369     1.2174    14.4503    14.4502     1.7056     0.0000     1.0000     0.0378     0.000
     37     0.6666     0.6666     0.4300     0.0001     30.000   1248.000 225113.000     32.625    41.5367    68.4126   -26.7328    -1.9995     0.0009    26.0000     4.0000     9.0000    22.0000    26.0000    10.0000     5.0000    20.0000     3.0006     1.0000    -0.4991    20.7740    41.5369     1.2210    14.4503    14.4502     1.7056     0.0000     1.0000     0.0377     0.000
     38     0.6666     0.6666     0.4350     0.0001     30.000   1228.000 225448.000     32.674    41.5367    68.6612   -26.8112    -1.9995     0.0009    26.0000     4.0000     9.0000    22.0000    26.0000    10.0000     5.0000    20.0000     3.0006     1.0000    -0.4994    20.7740    41.5369     1.2245    14.4503    14.4502     1.7057     0.0000     1.0000     0.0377     0.000
     39     0.6666     0.6666     0.4400     0.0001     30.000   1233.000 225135.000     32.628    41.5367    68.9053   -26.8910    -1.9995     0.0009    26.0000     4.0000     9.0000    22.0000    26.0000    10.0000     5.0000    20.0000     3.0006     1.0000    -0.4992    20.7740    41.5369     1.2281    14.4503    14.4502     1.7057     0.0000     1.0000     0.0377     0.000
     40     0.6666     0.6666     0.4450     0.0001     30.000   1191.000 225621.000     32.699    41.5367    69.1502   -26.9719    -1.9995     0.0009    26.0000     4.0000     9.0000    22.0000    26.0000    10.0000     5.0000    20.0000     3.0006     1.0000    -0.4994    20.7740    41.5369     1.2317    14.4503    14.4502     1.7058     0.0000     1.0000     0.0376     0.000
     41     0.6666     0.6666     0.4500     0.0001     30.000   1257.000 224145.000     32.485    41.5367    69.3911   -27.0525    -1.9995     0.0009    26.0000     4.0000     9.0000    22.0000    26.0000    10.0000     5.0000    20.0000     3.0006     1.0000    -0.4992    20.7740    41.5369     1.2353    14.4503    14.4502     1.7058     0.0000     1.0000     0.0376     0.000
     42     0.6666     0.6666     0.4550     0.0001     30.000   1216.000 223749.000     32.427    41.5367    69.6307   -27.1348    -1.9995     0.0009    26.0000     4.0000     9.0000    22.0000    26.0000    10.0000     5.0000    20.0000     3.0006     1.0000    -0.4994    20.7740    41.5369     1.2390    14.4503    14.4502     1.7058     0.0000     1.0000     0.0377     0.000
     43     0.6665     0.6666     0.4600     0.0001     30.000   1222.000 225091.000     32.622    41.5367    69.8671   -27.2151    -1.9995     0.0009    26.0000     4.0000     9.0000    22.0000    26.0000    10.0000     5.0000    20.0000     3.0006     1.0000    -0.4992    20.7740    41.5369     1.2426    14.4503    14.4502     1.7058     0.0000     1.0000     0.0377     0.000
     44     0.6666     0.6666     0.4650     0.0001     30.000   1309.000 224634.000     32.556    41.5367    70.1022   -27.3004    -1.9995     0.0009    26.0000     4.0000     9.0000    22.0000    26.0000    10.0000     5.0000    20.0000     3.0006     1.0000    -0.4995    20.7740    41.5369     1.2464    14.4503    14.4502     1.7059     0.0000     1.0000     0.0378     0.000
     45     0.6666     0.6666     0.4700     0.0001     30.000   1263.000 225916.000     32.741    41.5367    70.3362   -27.3844    -1.9995     0.0009    26.0000     4.0000     9.0000    22.0000    26.0000    10.0000     5.0000    20.0000     3.0005     1.0000    -0.4992    20.7740    41.5369     1.2502    14.4503    14.4502     1.7058     0.0000     1.0000     0.0378     0.000
     46     0.6666     0.6666     0.4750     0.0001     30.000   1288.000 225961.000     32.748    41.5367    70.5674   -27.4686    -1.9995     0.0009    26.0000     4.0000     9.0000    22.0000    26.0000    10.0000     5.0000    20.0000     3.0006     1.0000    -0.4993    20.7740    41.5369     1.2539    14.4503    14.4502     1.7059     0.0000     1.0000     0.0378     0.000
     47     0.6666     0.6666     0.4800     0.0001     30.000   1388.000 225620.000     32.699    41.5367    70.7971   -27.5530    -1.9995     0.0009    26.0000     4.0000     9.0000    22.0000    26.0000    10.0000     5.0000    20.0000     3.0006     1.0000    -0.4992    20.7740    41.5368     1.2577    14.4503    14.4502     1.7059     0.0000     1.0000     0.0378     0.000
     48     0.6666     0.6666     0.4850     0.0001     30.000   1272.000 224495.000     32.536    41.5367    71.0247   -27.6387    -1.9995     0.0009    26.0000     4.0000     9.0000    22.0000    26.0000    10.0000     5.0000    20.0000     3.0006     1.0000    -0.4994    20.7740    41.5369     1.2616    14.4503    14.4502     1.7060     0.0000     1.0000     0.0377     0.000
