# scan = 33
# date = 9/19/2023
# time = 6:37:06 PM
# proposal = 30730
# experiment = Low Temperature Magnetic Structure of CeCl3
# experiment_number = 998
# command = scan h 0.33333 k 0.33333 l 0.25 2.25 0.005 e 0 preset time 30
# builtin_command = scan h 0.33333 k 0.33333 l 0.25 2.25 0.005 e 0 preset time 30
# users = Adam Aczel, David Mandrus, Matthew Cothrine, Stephen Nagler
# local_contact = A. Aczel
# scan_title = CeBr3, (1/3 1/3 L) scan, T = 0.04 K
# monochromator = PG002
# analyzer = Pg002
# sense = +-+
# collimation = 40-40-40-80
# samplename = CeBr3
# sampletype = crystal
# samplemosaic = 30.000000
# latticeconstants = 7.911813,7.911813,4.442653,90.000000,90.000000,120.000000
# ubmatrix = 0.075384,0.080477,-0.177039,-0.099473,-0.099471,-0.138870,-0.075649,0.070209,0.006183
# mode = 0
# plane_normal = 0.034896,0.000010,0.999390
# ubconf = UB19Sep2023_24416PM.ini
# preset_type = normal
# preset_channel = time
# preset_value = 30.000000
# def_x = l
# def_y = detector
# col_headers =
#   Pt.          h          k          l          e       time   detector    monitor        mcu         m2         s1         s2        sgl        sgu   slitb_bt   slitb_lf   slitb_rt   slitb_tp   slita_bt   slita_lf   slita_rt   slita_tp        stl        stu         sz         a1         a2          q         ei         ef        vti     sample       temp dr_tsample    dr_temp
      1     0.3333     0.3333     0.2500    -0.0000     30.000   1622.000 224349.000     32.514    41.5367    78.7191   -13.8460    -1.9995     0.0009    26.0000     4.0000     9.0000    22.0000    26.0000    10.0000     5.0000    20.0000     3.0004     1.0000    -0.4999    20.7757    41.5366     0.6366    14.4503    14.4503     1.7062     0.0000     1.0000     0.0393     0.000
      2     0.3333     0.3333     0.2550     0.0002     30.000   1609.000 224332.000     32.512    41.5367    79.2022   -13.9322    -1.9995     0.0009    26.0000     4.0000     9.0000    22.0000    26.0000    10.0000     5.0000    20.0000     3.0004     1.0000    -0.5000    20.7755    41.5371     0.6406    14.4503    14.4500     1.7061     0.0000     1.0000     0.0393     0.000
      3     0.3333     0.3333     0.2600     0.0001     30.000   1669.000 224479.000     32.533    41.5367    79.6779   -14.0195    -1.9995     0.0009    26.0000     4.0000     9.0000    22.0000    26.0000    10.0000     5.0000    20.0000     3.0004     1.0000    -0.4998    20.7754    41.5368     0.6446    14.4503    14.4502     1.7061     0.0000     1.0000     0.0390     0.000
      4     0.3333     0.3333     0.2650     0.0000     30.000   1617.000 224461.000     32.531    41.5367    80.1465   -14.1076    -1.9995     0.0009    26.0000     4.0000     9.0000    22.0000    26.0000    10.0000     5.0000    20.0000     3.0005     1.0000    -0.4998    20.7753    41.5368     0.6486    14.4503    14.4502     1.7061     0.0000     1.0000     0.0390     0.000
      5     0.3333     0.3333     0.2700     0.0000     30.000   1655.000 223242.000     32.354    41.5367    80.6080   -14.1986    -1.9995     0.0009    26.0000     4.0000     9.0000    22.0000    26.0000    10.0000     5.0000    20.0000     3.0004     1.0000    -0.4998    20.7753    41.5367     0.6527    14.4503    14.4503     1.7061     0.0000     1.0000     0.0388     0.000
      6     0.3333     0.3333     0.2750     0.0000     30.000   1640.000 224152.000     32.486    41.5367    81.0627   -14.2899    -1.9995     0.0009    26.0000     4.0000     9.0000    22.0000    26.0000    10.0000     5.0000    20.0000     3.0005     1.0000    -0.4997    20.7752    41.5367     0.6569    14.4503    14.4503     1.7061     0.0000     1.0000     0.0389     0.000
      7     0.3333     0.3333     0.2800     0.0000     30.000   1627.000 223330.000     32.367    41.5367    81.5113   -14.3831    -1.9995     0.0009    26.0000     4.0000     9.0000    22.0000    26.0000    10.0000     5.0000    20.0000     3.0005     1.0000    -0.4997    20.7751    41.5367     0.6612    14.4503    14.4503     1.7060     0.0000     1.0000     0.0389     0.000
      8     0.3333     0.3334     0.2850     0.0000     30.000   1577.000 224487.000     32.534    41.5367    81.9514   -14.4765    -1.9995     0.0009    26.0000     4.0000     9.0000    22.0000    26.0000    10.0000     5.0000    20.0000     3.0005     1.0000    -0.4996    20.7751    41.5367     0.6655    14.4503    14.4503     1.7060     0.0000     1.0000     0.0388     0.000
      9     0.3333     0.3333     0.2900     0.0000     30.000   1606.000 224207.000     32.494    41.5367    82.3863   -14.5701    -1.9995     0.0009    26.0000     4.0000     9.0000    22.0000    26.0000    10.0000     5.0000    20.0000     3.0005     1.0000    -0.4997    20.7751    41.5367     0.6697    14.4503    14.4503     1.7060     0.0000     1.0000     0.0388     0.000
     10     0.3334     0.3334     0.2951     0.0000     30.000   1634.000 223649.000     32.413    41.5367    82.8143   -14.6675    -1.9995     0.0009    26.0000     4.0000     9.0000    22.0000    26.0000    10.0000     5.0000    20.0000     3.0005     1.0000    -0.4996    20.7751    41.5367     0.6742    14.4503    14.4503     1.7060     0.0000     1.0000     0.0387     0.000
     11     0.3333     0.3334     0.3000     0.0000     30.000   1606.000 224546.000     32.543    41.5367    83.2360   -14.7628    -1.9995     0.0009    26.0000     4.0000     9.0000    22.0000    26.0000    10.0000     5.0000    20.0000     3.0005     1.0000    -0.4998    20.7750    41.5368     0.6785    14.4503    14.4502     1.7059     0.0000     1.0000     0.0387     0.000
     12     0.3333     0.3334     0.3050     0.0001     30.000   1660.000 224453.000     32.529    41.5367    83.6483   -14.8595    -1.9995     0.0009    26.0000     4.0000     9.0000    22.0000    26.0000    10.0000     5.0000    20.0000     3.0005     1.0000    -0.4997    20.7749    41.5369     0.6830    14.4503    14.4502     1.7059     0.0000     1.0000     0.0387     0.000
     13     0.3333     0.3333     0.3100    -0.0000     30.000   1555.000 225148.000     32.630    41.5367    84.0583   -14.9566    -1.9995     0.0009    26.0000     4.0000     9.0000    22.0000    26.0000    10.0000     5.0000    20.0000     3.0005     1.0000    -0.4996    20.7749    41.5366     0.6874    14.4503    14.4503     1.7058     0.0000     1.0000     0.0387     0.000
     14     0.3333     0.3333     0.3150    -0.0000     30.000   1608.000 223706.000     32.421    41.5367    84.4564   -15.0551    -1.9995     0.0009    26.0000     4.0000     9.0000    22.0000    26.0000    10.0000     5.0000    20.0000     3.0005     1.0000    -0.4997    20.7748    41.5367     0.6919    14.4503    14.4503     1.7059     0.0000     1.0000     0.0388     0.000
     15     0.3333     0.3333     0.3200     0.0002     30.000   1637.000 223955.000     32.457    41.5367    84.8533   -15.1550    -1.9995     0.0009    26.0000     4.0000     9.0000    22.0000    26.0000    10.0000     5.0000    20.0000     3.0005     1.0000    -0.4996    20.7748    41.5369     0.6965    14.4503    14.4501     1.7059     0.0000     1.0000     0.0387     0.000
     16     0.3333     0.3333     0.3250    -0.0000     30.000   1645.000 223945.000     32.456    41.5367    85.2411   -15.2560    -1.9995     0.0009    26.0000     4.0000     9.0000    22.0000    26.0000    10.0000     5.0000    20.0000     3.0005     1.0000    -0.4997    20.7747    41.5367     0.7011    14.4503    14.4503     1.7059     0.0000     1.0000     0.0387     0.000
     17     0.3333     0.3333     0.3300     0.0001     30.000   1643.000 224524.000     32.540    41.5367    85.6246   -15.3584    -1.9995     0.0009    26.0000     4.0000     9.0000    22.0000    26.0000    10.0000     5.0000    20.0000     3.0005     1.0000    -0.4996    20.7747    41.5368     0.7058    14.4503    14.4502     1.7059     0.0000     1.0000     0.0387     0.000
     18     0.3333     0.3333     0.3350     0.0001     30.000   1636.000 224411.000     32.523    41.5367    85.9992   -15.4615    -1.9995     0.0009    26.0000     4.0000     9.0000    22.0000    26.0000    10.0000     5.0000    20.0000     3.0005     1.0000    -0.4996    20.7746    41.5368     0.7105    14.4503    14.4502     1.7060     0.0000     1.0000     0.0387     0.000
     19     0.3333     0.3333     0.3400     0.0001     30.000   1595.000 224312.000     32.509    41.5367    86.3716   -15.5646    -1.9995     0.0009    26.0000     4.0000     9.0000    22.0000    26.0000    10.0000     5.0000    20.0000     3.0005     1.0000    -0.4998    20.7746    41.5369     0.7152    14.4503    14.4502     1.7060     0.0000     1.0000     0.0387     0.000
     20     0.3333     0.3333     0.3450     0.0001     30.000   1588.000 224440.000     32.528    41.5367    86.7360   -15.6684    -1.9995     0.0009    26.0000     4.0000     9.0000    22.0000    26.0000    10.0000     5.0000    20.0000     3.0005     1.0000    -0.4996    20.7746    41.5369     0.7199    14.4503    14.4502     1.7060     0.0000     1.0000     0.0387     0.000
     21     0.3333     0.3333     0.3500     0.0001     30.000   1624.000 224208.000     32.494    41.5367    87.0953   -15.7735    -1.9995     0.0009    26.0000     4.0000     9.0000    22.0000    26.0000    10.0000     5.0000    20.0000     3.0005     1.0000    -0.4995    20.7746    41.5368     0.7247    14.4503    14.4502     1.7060     0.0000     1.0000     0.0387     0.000
     22     0.3333     0.3333     0.3549     0.0001     30.000   1618.000 224135.000     32.483    41.5367    87.4404   -15.8804    -1.9995     0.0009    26.0000     4.0000     9.0000    22.0000    26.0000    10.0000     5.0000    20.0000     3.0005     1.0000    -0.4997    20.7745    41.5368     0.7296    14.4503    14.4502     1.7058     0.0000     1.0000     0.0387     0.000
     23     0.3333     0.3334     0.3600     0.0002     30.000   1603.000 224200.000     32.493    41.5367    87.7906   -15.9893    -1.9995     0.0009    26.0000     4.0000     9.0000    22.0000    26.0000    10.0000     5.0000    20.0000     3.0005     1.0000    -0.4996    20.7744    41.5369     0.7346    14.4503    14.4501     1.7058     0.0000     1.0000     0.0387     0.000
     24     0.3333     0.3333     0.3650     0.0000     30.000   1561.000 224750.000     32.572    41.5367    88.1365   -16.0975    -1.9995     0.0009    26.0000     4.0000     9.0000    22.0000    26.0000    10.0000     5.0000    20.0000     3.0006     1.0000    -0.4996    20.7745    41.5367     0.7395    14.4503    14.4503     1.7056     0.0000     1.0000     0.0387     0.000
     25     0.3334     0.3334     0.3700    -0.0000     30.000   1530.000 225055.000     32.617    41.5367    88.4695   -16.2066    -1.9995     0.0009    26.0000     4.0000     9.0000    22.0000    26.0000    10.0000     5.0000    20.0000     3.0005     1.0000    -0.4995    20.7744    41.5367     0.7445    14.4503    14.4503     1.7056     0.0000     1.0000     0.0387     0.000
     26     0.3333     0.3333     0.3751     0.0002     30.000   1639.000 225059.000     32.617    41.5367    88.8057   -16.3154    -1.9995     0.0009    26.0000     4.0000     9.0000    22.0000    26.0000    10.0000     5.0000    20.0000     3.0005     1.0000    -0.4995    20.7745    41.5370     0.7494    14.4503    14.4501     1.7055     0.0000     1.0000     0.0386     0.000
     27     0.3333     0.3333     0.3801     0.0000     30.000   1523.000 225415.000     32.669    41.5367    89.1327   -16.4268    -1.9995     0.0009    26.0000     4.0000     9.0000    22.0000    26.0000    10.0000     5.0000    20.0000     3.0006     1.0000    -0.4992    20.7744    41.5367     0.7545    14.4503    14.4503     1.7055     0.0000     1.0000     0.0386     0.000
     28     0.3333     0.3333     0.3851     0.0001     30.000   1542.000 224493.000     32.535    41.5367    89.4447   -16.5369    -1.9995     0.0009    26.0000     4.0000     9.0000    22.0000    26.0000    10.0000     5.0000    20.0000     3.0005     1.0000    -0.4995    20.7745    41.5369     0.7595    14.4503    14.4502     1.7055     0.0000     1.0000     0.0387     0.000
     29     0.3333     0.3333     0.3900     0.0002     30.000   1532.000 223192.000     32.347    41.5367    89.7577   -16.6472    -1.9995     0.0009    26.0000     4.0000     9.0000    22.0000    26.0000    10.0000     5.0000    20.0000     3.0005     1.0000    -0.4994    20.7745    41.5370     0.7646    14.4503    14.4501     1.7054     0.0000     1.0000     0.0387     0.000
     30     0.3333     0.3333     0.3951     0.0000     30.000   1648.000 224849.000     32.587    41.5367    90.0672   -16.7601    -1.9995     0.0009    26.0000     4.0000     9.0000    22.0000    26.0000    10.0000     5.0000    20.0000     3.0006     1.0000    -0.4991    20.7744    41.5367     0.7697    14.4503    14.4503     1.7054     0.0000     1.0000     0.0387     0.000
     31     0.3333     0.3333     0.4000     0.0002     30.000   1526.000 224258.000     32.501    41.5367    90.3698   -16.8707    -1.9995     0.0009    26.0000     4.0000     9.0000    22.0000    26.0000    10.0000     5.0000    20.0000     3.0006     1.0000    -0.4994    20.7744    41.5370     0.7748    14.4503    14.4501     1.7054     0.0000     1.0000     0.0387     0.000
     32     0.3333     0.3333     0.4050    -0.0000     30.000   1555.000 224152.000     32.486    41.5367    90.6672   -16.9851    -1.9995     0.0009    26.0000     4.0000     9.0000    22.0000    26.0000    10.0000     5.0000    20.0000     3.0006     1.0000    -0.4991    20.7744    41.5367     0.7800    14.4503    14.4503     1.7055     0.0000     1.0000     0.0388     0.000
     33     0.3333     0.3333     0.4099     0.0001     30.000   1537.000 223836.000     32.440    41.5367    90.9613   -17.0964    -1.9995     0.0009    26.0000     4.0000     9.0000    22.0000    26.0000    10.0000     5.0000    20.0000     3.0006     1.0000    -0.4992    20.7743    41.5369     0.7851    14.4503    14.4502     1.7055     0.0000     1.0000     0.0388     0.000
     34     0.3332     0.3332     0.4149    -0.0001     30.000   1486.000 224560.000     32.545    41.5367    91.2491   -17.2088    -1.9995     0.0009    26.0000     4.0000     9.0000    22.0000    26.0000    10.0000     5.0000    20.0000     3.0006     1.0000    -0.4992    20.7744    41.5366     0.7902    14.4503    14.4503     1.7055     0.0000     1.0000     0.0387     0.000
     35     0.3333     0.3333     0.4201     0.0002     30.000   1577.000 224414.000     32.524    41.5367    91.5318   -17.3314    -1.9995     0.0009    26.0000     4.0000     9.0000    22.0000    26.0000    10.0000     5.0000    20.0000     3.0006     1.0000    -0.4990    20.7744    41.5370     0.7958    14.4503    14.4501     1.7056     0.0000     1.0000     0.0387     0.000
     36     0.3333     0.3333     0.4249     0.0001     30.000   1594.000 224353.000     32.515    41.5367    91.8110   -17.4427    -1.9995     0.0009    26.0000     4.0000     9.0000    22.0000    26.0000    10.0000     5.0000    20.0000     3.0006     1.0000    -0.4991    20.7743    41.5368     0.8008    14.4503    14.4502     1.7056     0.0000     1.0000     0.0387     0.000
     37     0.3333     0.3333     0.4300     0.0000     30.000   1571.000 223894.000     32.448    41.5367    92.0855   -17.5625    -1.9995     0.0009    26.0000     4.0000     9.0000    22.0000    26.0000    10.0000     5.0000    20.0000     3.0006     1.0000    -0.4993    20.7743    41.5367     0.8063    14.4503    14.4503     1.7056     0.0000     1.0000     0.0387     0.000
     38     0.3333     0.3333     0.4350     0.0000     30.000   1661.000 223311.000     32.364    41.5367    92.3541   -17.6808    -1.9995     0.0009    26.0000     4.0000     9.0000    22.0000    26.0000    10.0000     5.0000    20.0000     3.0006     1.0000    -0.4989    20.7743    41.5367     0.8117    14.4503    14.4503     1.7056     0.0000     1.0000     0.0387     0.000
     39     0.3333     0.3333     0.4400     0.0000     30.000   1553.000 223679.000     32.417    41.5367    92.6178   -17.7986    -1.9995     0.0009    26.0000     4.0000     9.0000    22.0000    26.0000    10.0000     5.0000    20.0000     3.0006     1.0000    -0.4989    20.7743    41.5367     0.8170    14.4503    14.4503     1.7055     0.0000     1.0000     0.0387     0.000
     40     0.3333     0.3334     0.4451     0.0000     30.000   1502.000 224846.000     32.586    41.5367    92.8784   -17.9190    -1.9995     0.0009    26.0000     4.0000     9.0000    22.0000    26.0000    10.0000     5.0000    20.0000     3.0007     1.0000    -0.4989    20.7742    41.5367     0.8225    14.4503    14.4503     1.7054     0.0000     1.0000     0.0387     0.000
     41     0.3333     0.3334     0.4501     0.0000     30.000   1521.000 223612.000     32.408    41.5367    93.1344   -18.0386    -1.9995     0.0009    26.0000     4.0000     9.0000    22.0000    26.0000    10.0000     5.0000    20.0000     3.0006     1.0000    -0.4989    20.7742    41.5367     0.8280    14.4503    14.4503     1.7054     0.0000     1.0000     0.0388     0.000
     42     0.3333     0.3333     0.4550     0.0000     30.000   1478.000 223691.000     32.419    41.5367    93.3851   -18.1567    -1.9995     0.0009    26.0000     4.0000     9.0000    22.0000    26.0000    10.0000     5.0000    20.0000     3.0006     1.0000    -0.4989    20.7742    41.5367     0.8333    14.4503    14.4503     1.7054     0.0000     1.0000     0.0388     0.000
     43     0.3333     0.3333     0.4600     0.0000     30.000   1493.000 224234.000     32.498    41.5367    93.6309   -18.2757    -1.9995     0.0009    26.0000     4.0000     9.0000    22.0000    26.0000    10.0000     5.0000    20.0000     3.0006     1.0000    -0.4989    20.7742    41.5367     0.8388    14.4503    14.4503     1.7054     0.0000     1.0000     0.0388     0.000
     44     0.3333     0.3333     0.4650     0.0000     30.000   1516.000 224367.000     32.517    41.5367    93.8744   -18.3961    -1.9995     0.0009    26.0000     4.0000     9.0000    22.0000    26.0000    10.0000     5.0000    20.0000     3.0007     1.0000    -0.4988    20.7742    41.5367     0.8442    14.4503    14.4503     1.7054     0.0000     1.0000     0.0388     0.000
     45     0.3333     0.3333     0.4700     0.0002     30.000   1481.000 224086.000     32.476    41.5367    94.1123   -18.5175    -1.9995     0.0009    26.0000     4.0000     9.0000    22.0000    26.0000    10.0000     5.0000    20.0000     3.0006     1.0000    -0.4990    20.7742    41.5369     0.8498    14.4503    14.4501     1.7054     0.0000     1.0000     0.0387     0.000
     46     0.3333     0.3333     0.4750     0.0000     30.000   1537.000 224256.000     32.501    41.5367    94.3463   -18.6388    -1.9995     0.0009    26.0000     4.0000     9.0000    22.0000    26.0000    10.0000     5.0000    20.0000     3.0006     1.0000    -0.4990    20.7742    41.5367     0.8553    14.4503    14.4503     1.7053     0.0000     1.0000     0.0387     0.000
     47     0.3333     0.3333     0.4800     0.0001     30.000   1573.000 224584.000     32.548    41.5367    94.5761   -18.7622    -1.9995     0.0009    26.0000     4.0000     9.0000    22.0000    26.0000    10.0000     5.0000    20.0000     3.0006     1.0000    -0.4990    20.7741    41.5368     0.8609    14.4503    14.4502     1.7053     0.0000     1.0000     0.0387     0.000
     48     0.3333     0.3333     0.4850     0.0001     30.000   1579.000 223917.000     32.452    41.5367    94.8029   -18.8849    -1.9995     0.0009    26.0000     4.0000     9.0000    22.0000    26.0000    10.0000     5.0000    20.0000     3.0006     1.0000    -0.4990    20.7742    41.5368     0.8665    14.4503    14.4502     1.7053     0.0000     1.0000     0.0388     0.000
