# scan = 38
# date = 9/20/2023
# time = 10:10:31 AM
# proposal = 30730
# experiment = Low Temperature Magnetic Structure of CeCl3
# experiment_number = 998
# command = scan h 0.04 2.25 0.01 k 0.04 2.25 0.01 l 0.5 e 0 preset time 30
# builtin_command = scan h 0.04 2.25 0.01 k 0.04 2.25 0.01 l 0.5 e 0 preset time 30
# users = Adam Aczel, David Mandrus, Matthew Cothrine, Stephen Nagler
# local_contact = A. Aczel
# scan_title = CeBr3, (H H 0.5) scan, T = 0.04 K
# monochromator = PG002
# analyzer = Pg002
# sense = +-+
# collimation = 40-40-40-80
# samplename = CeBr3
# sampletype = crystal
# samplemosaic = 30.000000
# latticeconstants = 7.911813,7.911813,4.442653,90.000000,90.000000,120.000000
# ubmatrix = 0.075384,0.080477,-0.177039,-0.099473,-0.099471,-0.138870,-0.075649,0.070209,0.006183
# mode = 0
# plane_normal = 0.034896,0.000010,0.999390
# ubconf = UB19Sep2023_24416PM.ini
# preset_type = normal
# preset_channel = time
# preset_value = 30.000000
# def_x = h
# def_y = detector
# col_headers =
#   Pt.          h          k          l          e       time   detector    monitor        mcu         m2         s1         s2        sgl        sgu   slitb_bt   slitb_lf   slitb_rt   slitb_tp   slita_bt   slita_lf   slita_rt   slita_tp        stl        stu         sz         a1         a2          q         ei         ef        vti     sample       temp dr_tsample    dr_temp
      1     0.0400     0.0400     0.5000    -0.0000     30.000   1493.000 226333.000     32.802    41.5367   129.0490   -15.4513    -1.9995     0.0007    26.0000     4.0000     9.0000    22.0000    26.0000    10.0000     5.0000    20.0000     3.0016     1.0000    -0.4933    20.7752    41.5367     0.7100    14.4503    14.4503     1.7086     0.0000     1.0000     0.0386     0.000
      2     0.0500     0.0500     0.5000     0.0001     30.000   1521.000 225555.000     32.689    41.5367   127.7560   -15.4862    -1.9995     0.0007    26.0000     4.0000     9.0000    22.0000    26.0000    10.0000     5.0000    20.0000     3.0014     1.0000    -0.4943    20.7751    41.5369     0.7116    14.4503    14.4502     1.7086     0.0000     1.0000     0.0386     0.000
      3     0.0600     0.0600     0.4999    -0.0000     30.000   1535.000 226090.000     32.767    41.5367   126.4662   -15.5263    -1.9995     0.0007    26.0000     4.0000     9.0000    22.0000    26.0000    10.0000     5.0000    20.0000     3.0013     1.0000    -0.4949    20.7750    41.5367     0.7134    14.4503    14.4503     1.7087     0.0000     1.0000     0.0395     0.000
      4     0.0700     0.0700     0.5000     0.0002     30.000   1489.000 227049.000     32.906    41.5367   125.1825   -15.5789    -1.9995     0.0007    26.0000     4.0000     9.0000    22.0000    26.0000    10.0000     5.0000    20.0000     3.0012     1.0000    -0.4952    20.7750    41.5370     0.7158    14.4503    14.4501     1.7087     0.0000     1.0000     0.0395     0.000
      5     0.0800     0.0800     0.5000     0.0001     30.000   1518.000 225541.000     32.687    41.5367   123.9030   -15.6356    -1.9995     0.0008    26.0000     4.0000     9.0000    22.0000    26.0000    10.0000     5.0000    20.0000     3.0011     1.0000    -0.4956    20.7749    41.5368     0.7184    14.4503    14.4502     1.7088     0.0000     1.0000     0.0395     0.000
      6     0.0900     0.0900     0.5000     0.0001     30.000   1561.000 225753.000     32.718    41.5367   122.6271   -15.7008    -1.9995     0.0008    26.0000     4.0000     9.0000    22.0000    26.0000    10.0000     5.0000    20.0000     3.0010     1.0000    -0.4959    20.7749    41.5368     0.7214    14.4503    14.4502     1.7088     0.0000     1.0000     0.0395     0.000
      7     0.1000     0.1000     0.5000     0.0000     30.000   1527.000 225510.000     32.683    41.5367   121.3605   -15.7743    -1.9995     0.0008    26.0000     4.0000     9.0000    22.0000    26.0000    10.0000     5.0000    20.0000     3.0010     1.0000    -0.4962    20.7748    41.5368     0.7247    14.4503    14.4502     1.7088     0.0000     1.0000     0.0395     0.000
      8     0.1100     0.1100     0.5000     0.0000     30.000   1555.000 224943.000     32.600    41.5367   120.1024   -15.8536    -1.9995     0.0008    26.0000     4.0000     9.0000    22.0000    26.0000    10.0000     5.0000    20.0000     3.0010     1.0000    -0.4964    20.7748    41.5367     0.7284    14.4503    14.4503     1.7087     0.0000     1.0000     0.0395     0.000
      9     0.1200     0.1200     0.5000     0.0000     30.000   1488.000 225723.000     32.713    41.5367   118.8519   -15.9415    -1.9995     0.0008    26.0000     4.0000     9.0000    22.0000    26.0000    10.0000     5.0000    20.0000     3.0009     1.0000    -0.4968    20.7748    41.5367     0.7324    14.4503    14.4503     1.7087     0.0000     1.0000     0.0395     0.000
     10     0.1300     0.1300     0.5000     0.0000     30.000   1481.000 225343.000     32.658    41.5367   117.6109   -16.0354    -1.9995     0.0008    26.0000     4.0000     9.0000    22.0000    26.0000    10.0000     5.0000    20.0000     3.0009     1.0000    -0.4969    20.7747    41.5367     0.7367    14.4503    14.4503     1.7088     0.0000     1.0000     0.0395     0.000
     11     0.1400     0.1400     0.5001     0.0000     30.000   1509.000 226141.000     32.774    41.5367   116.3829   -16.1383    -1.9995     0.0008    26.0000     4.0000     9.0000    22.0000    26.0000    10.0000     5.0000    20.0000     3.0008     1.0000    -0.4972    20.7746    41.5367     0.7414    14.4503    14.4503     1.7088     0.0000     1.0000     0.0395     0.000
     12     0.1500     0.1500     0.5000     0.0000     30.000   1527.000 225300.000     32.652    41.5367   115.1660   -16.2450    -1.9995     0.0008    26.0000     4.0000     9.0000    22.0000    26.0000    10.0000     5.0000    20.0000     3.0007     1.0000    -0.4974    20.7746    41.5367     0.7462    14.4503    14.4503     1.7088     0.0000     1.0000     0.0395     0.000
     13     0.1600     0.1600     0.5001     0.0000     30.000   1474.000 225649.000     32.703    41.5367   113.9617   -16.3614    -1.9995     0.0008    26.0000     4.0000     9.0000    22.0000    26.0000    10.0000     5.0000    20.0000     3.0007     1.0000    -0.4976    20.7746    41.5367     0.7515    14.4503    14.4503     1.7089     0.0000     1.0000     0.0395     0.000
     14     0.1700     0.1700     0.5001     0.0003     30.000   1576.000 226925.000     32.888    41.5367   112.7737   -16.4825    -1.9995     0.0008    26.0000     4.0000     9.0000    22.0000    26.0000    10.0000     5.0000    20.0000     3.0006     1.0000    -0.4978    20.7746    41.5371     0.7571    14.4503    14.4500     1.7090     0.0000     1.0000     0.0393     0.000
     15     0.1800     0.1800     0.5000     0.0001     30.000   1468.000 226650.000     32.848    41.5367   111.5899   -16.6060    -1.9995     0.0008    26.0000     4.0000     9.0000    22.0000    26.0000    10.0000     5.0000    20.0000     3.0006     1.0000    -0.4979    20.7745    41.5369     0.7627    14.4503    14.4502     1.7090     0.0000     1.0000     0.0394     0.000
     16     0.1900     0.1900     0.5000     0.0001     30.000   1425.000 226880.000     32.881    41.5367   110.4247   -16.7407    -1.9995     0.0008    26.0000     4.0000     9.0000    22.0000    26.0000    10.0000     5.0000    20.0000     3.0006     1.0000    -0.4979    20.7745    41.5368     0.7688    14.4503    14.4502     1.7090     0.0000     1.0000     0.0394     0.000
     17     0.2000     0.2000     0.5000     0.0001     30.000   1496.000 225999.000     32.753    41.5367   109.2759   -16.8790    -1.9995     0.0009    26.0000     4.0000     9.0000    22.0000    26.0000    10.0000     5.0000    20.0000     3.0006     1.0000    -0.4981    20.7745    41.5368     0.7751    14.4503    14.4502     1.7089     0.0000     1.0000     0.0393     0.000
     18     0.2100     0.2100     0.4999     0.0000     30.000   1471.000 227209.000     32.929    41.5367   108.1395   -17.0225    -1.9995     0.0009    26.0000     4.0000     9.0000    22.0000    26.0000    10.0000     5.0000    20.0000     3.0005     1.0000    -0.4983    20.7744    41.5368     0.7817    14.4503    14.4502     1.7089     0.0000     1.0000     0.0393     0.000
     19     0.2199     0.2199     0.4999     0.0001     30.000   1519.000 225648.000     32.703    41.5367   107.0283   -17.1746    -1.9995     0.0009    26.0000     4.0000     9.0000    22.0000    26.0000    10.0000     5.0000    20.0000     3.0005     1.0000    -0.4984    20.7744    41.5368     0.7886    14.4503    14.4502     1.7089     0.0000     1.0000     0.0391     0.000
     20     0.2300     0.2300     0.5001     0.0001     30.000   1498.000 226550.000     32.833    41.5367   105.9181   -17.3383    -1.9995     0.0009    26.0000     4.0000     9.0000    22.0000    26.0000    10.0000     5.0000    20.0000     3.0005     1.0000    -0.4986    20.7744    41.5368     0.7961    14.4503    14.4502     1.7090     0.0000     1.0000     0.0391     0.000
     21     0.2399     0.2399     0.4999     0.0001     30.000   1540.000 226395.000     32.811    41.5367   104.8349   -17.4942    -1.9995     0.0009    26.0000     4.0000     9.0000    22.0000    26.0000    10.0000     5.0000    20.0000     3.0005     1.0000    -0.4986    20.7743    41.5368     0.8032    14.4503    14.4502     1.7090     0.0000     1.0000     0.0390     0.000
     22     0.2500     0.2500     0.5000     0.0001     30.000   1538.000 227396.000     32.956    41.5367   103.7597   -17.6655    -1.9995     0.0009    26.0000     4.0000     9.0000    22.0000    26.0000    10.0000     5.0000    20.0000     3.0005     1.0000    -0.4988    20.7743    41.5368     0.8110    14.4503    14.4502     1.7090     0.0000     1.0000     0.0390     0.000
     23     0.2600     0.2600     0.5001     0.0000     30.000   1503.000 226363.000     32.806    41.5367   102.7034   -17.8412    -1.9995     0.0009    26.0000     4.0000     9.0000    22.0000    26.0000    10.0000     5.0000    20.0000     3.0005     1.0000    -0.4989    20.7743    41.5368     0.8190    14.4503    14.4502     1.7090     0.0000     1.0000     0.0390     0.000
     24     0.2700     0.2700     0.5001     0.0001     30.000   1538.000 226293.000     32.796    41.5367   101.6645   -18.0209    -1.9995     0.0009    26.0000     4.0000     9.0000    22.0000    26.0000    10.0000     5.0000    20.0000     3.0005     1.0000    -0.4989    20.7743    41.5368     0.8272    14.4503    14.4502     1.7091     0.0000     1.0000     0.0387     0.000
     25     0.2800     0.2800     0.5000     0.0001     30.000   1592.000 226443.000     32.818    41.5367   100.6410   -18.2018    -1.9995     0.0009    26.0000     4.0000     9.0000    22.0000    26.0000    10.0000     5.0000    20.0000     3.0005     1.0000    -0.4990    20.7743    41.5368     0.8354    14.4503    14.4502     1.7091     0.0000     1.0000     0.0387     0.000
     26     0.2900     0.2900     0.5000     0.0001     30.000   1484.000 225459.000     32.675    41.5367    99.6337   -18.3893    -1.9995     0.0009    26.0000     4.0000     9.0000    22.0000    26.0000    10.0000     5.0000    20.0000     3.0005     1.0000    -0.4992    20.7742    41.5368     0.8439    14.4503    14.4502     1.7091     0.0000     1.0000     0.0388     0.000
     27     0.3000     0.3000     0.5000     0.0001     30.000   1455.000 226104.000     32.769    41.5367    98.6433   -18.5807    -1.9995     0.0009    26.0000     4.0000     9.0000    22.0000    26.0000    10.0000     5.0000    20.0000     3.0004     1.0000    -0.4992    20.7742    41.5368     0.8526    14.4503    14.4502     1.7091     0.0000     1.0000     0.0388     0.000
     28     0.3100     0.3100     0.5000     0.0001     30.000   1563.000 225825.000     32.728    41.5367    97.6681   -18.7785    -1.9995     0.0009    26.0000     4.0000     9.0000    22.0000    26.0000    10.0000     5.0000    20.0000     3.0004     1.0000    -0.4993    20.7742    41.5368     0.8616    14.4503    14.4502     1.7092     0.0000     1.0000     0.0387     0.000
     29     0.3200     0.3200     0.5000     0.0001     30.000   1601.000 224582.000     32.548    41.5367    96.7096   -18.9813    -1.9995     0.0009    26.0000     4.0000     9.0000    22.0000    26.0000    10.0000     5.0000    20.0000     3.0004     1.0000    -0.4994    20.7742    41.5368     0.8709    14.4503    14.4502     1.7092     0.0000     1.0000     0.0387     0.000
     30     0.3300     0.3300     0.5000     0.0001     30.000   8071.000 225945.000     32.746    41.5367    95.7667   -19.1862    -1.9995     0.0009    26.0000     4.0000     9.0000    22.0000    26.0000    10.0000     5.0000    20.0000     3.0004     1.0000    -0.4995    20.7742    41.5368     0.8802    14.4503    14.4502     1.7092     0.0000     1.0000     0.0387     0.000
     31     0.3400     0.3400     0.5000     0.0001     30.000   6884.000 226058.000     32.762    41.5367    94.8406   -19.3976    -1.9995     0.0009    26.0000     4.0000     9.0000    22.0000    26.0000    10.0000     5.0000    20.0000     3.0004     1.0000    -0.4995    20.7742    41.5368     0.8898    14.4503    14.4502     1.7092     0.0000     1.0000     0.0385     0.000
     32     0.3500     0.3500     0.5000     0.0001     30.000   1625.000 226482.000     32.823    41.5367    93.9289   -19.6129    -1.9995     0.0009    26.0000     4.0000     9.0000    22.0000    26.0000    10.0000     5.0000    20.0000     3.0004     1.0000    -0.4995    20.7741    41.5368     0.8996    14.4503    14.4502     1.7092     0.0000     1.0000     0.0385     0.000
     33     0.3600     0.3600     0.5000     0.0001     30.000   1573.000 226658.000     32.849    41.5367    93.0325   -19.8309    -1.9995     0.0009    26.0000     4.0000     9.0000    22.0000    26.0000    10.0000     5.0000    20.0000     3.0004     1.0000    -0.4996    20.7741    41.5368     0.9094    14.4503    14.4502     1.7092     0.0000     1.0000     0.0385     0.000
     34     0.3699     0.3699     0.4999     0.0001     30.000   1428.000 226403.000     32.812    41.5367    92.1532   -20.0480    -1.9995     0.0009    26.0000     4.0000     9.0000    22.0000    26.0000    10.0000     5.0000    20.0000     3.0004     1.0000    -0.4996    20.7741    41.5368     0.9193    14.4503    14.4502     1.7092     0.0000     1.0000     0.0385     0.000
     35     0.3799     0.3799     0.4999     0.0001     30.000   1430.000 226326.000     32.801    41.5367    91.2877   -20.2734    -1.9995     0.0009    26.0000     4.0000     9.0000    22.0000    26.0000    10.0000     5.0000    20.0000     3.0004     1.0000    -0.4996    20.7741    41.5368     0.9295    14.4503    14.4502     1.7091     0.0000     1.0000     0.0384     0.000
     36     0.3900     0.3900     0.5000     0.0001     30.000   1452.000 226369.000     32.807    41.5367    90.4364   -20.5041    -1.9995     0.0009    26.0000     4.0000     9.0000    22.0000    26.0000    10.0000     5.0000    20.0000     3.0004     1.0000    -0.4996    20.7741    41.5368     0.9400    14.4503    14.4502     1.7091     0.0000     1.0000     0.0384     0.000
     37     0.4000     0.4000     0.5000     0.0001     30.000   1443.000 225871.000     32.735    41.5367    89.5996   -20.7374    -1.9995     0.0009    26.0000     4.0000     9.0000    22.0000    26.0000    10.0000     5.0000    20.0000     3.0004     1.0000    -0.4997    20.7741    41.5368     0.9506    14.4503    14.4502     1.7090     0.0000     1.0000     0.0383     0.000
     38     0.4100     0.4100     0.5000     0.0001     30.000   1400.000 226361.000     32.806    41.5367    88.7777   -20.9751    -1.9995     0.0009    26.0000     4.0000     9.0000    22.0000    26.0000    10.0000     5.0000    20.0000     3.0004     1.0000    -0.4997    20.7741    41.5368     0.9614    14.4503    14.4502     1.7090     0.0000     1.0000     0.0383     0.000
     39     0.4200     0.4201     0.5001     0.0001     30.000   1474.000 227084.000     32.911    41.5367    87.9693   -21.2164    -1.9995     0.0009    26.0000     4.0000     9.0000    22.0000    26.0000    10.0000     5.0000    20.0000     3.0004     1.0000    -0.4998    20.7741    41.5368     0.9723    14.4503    14.4502     1.7090     0.0000     1.0000     0.0383     0.000
     40     0.4300     0.4300     0.5000     0.0001     30.000   1401.000 225772.000     32.721    41.5367    87.1756   -21.4558    -1.9995     0.0009    26.0000     4.0000     9.0000    22.0000    26.0000    10.0000     5.0000    20.0000     3.0004     1.0000    -0.4998    20.7740    41.5368     0.9831    14.4503    14.4502     1.7090     0.0000     1.0000     0.0384     0.000
     41     0.4399     0.4399     0.4999     0.0001     30.000   1373.000 225953.000     32.747    41.5367    86.3952   -21.6969    -1.9995     0.0009    26.0000     4.0000     9.0000    22.0000    26.0000    10.0000     5.0000    20.0000     3.0004     1.0000    -0.4998    20.7740    41.5368     0.9940    14.4503    14.4502     1.7091     0.0000     1.0000     0.0384     0.000
     42     0.4500     0.4500     0.5000     0.0001     30.000   1432.000 225016.000     32.611    41.5367    85.6260   -21.9482    -1.9995     0.0009    26.0000     4.0000     9.0000    22.0000    26.0000    10.0000     5.0000    20.0000     3.0004     1.0000    -0.4998    20.7740    41.5369     1.0054    14.4503    14.4502     1.7091     0.0000     1.0000     0.0381     0.000
     43     0.4599     0.4600     0.4999     0.0001     30.000   1379.000 225576.000     32.692    41.5367    84.8705   -22.1968    -1.9995     0.0009    26.0000     4.0000     9.0000    22.0000    26.0000    10.0000     5.0000    20.0000     3.0004     1.0000    -0.4997    20.7740    41.5368     1.0167    14.4503    14.4502     1.7091     0.0000     1.0000     0.0381     0.000
     44     0.4700     0.4700     0.5001     0.0001     30.000   1403.000 225830.000     32.729    41.5367    84.1294   -22.4549    -1.9995     0.0009    26.0000     4.0000     9.0000    22.0000    26.0000    10.0000     5.0000    20.0000     3.0004     1.0000    -0.4998    20.7740    41.5368     1.0283    14.4503    14.4502     1.7091     0.0000     1.0000     0.0383     0.000
     45     0.4800     0.4800     0.5001     0.0001     30.000   1324.000 225259.000     32.646    41.5367    83.3997   -22.7112    -1.9995     0.0009    26.0000     4.0000     9.0000    22.0000    26.0000    10.0000     5.0000    20.0000     3.0004     1.0000    -0.4998    20.7740    41.5368     1.0399    14.4503    14.4502     1.7091     0.0000     1.0000     0.0381     0.000
     46     0.4901     0.4901     0.5001     0.0001     30.000   1299.000 225203.000     32.638    41.5367    82.6806   -22.9724    -1.9995     0.0009    26.0000     4.0000     9.0000    22.0000    26.0000    10.0000     5.0000    20.0000     3.0004     1.0000    -0.4999    20.7740    41.5368     1.0517    14.4503    14.4502     1.7091     0.0000     1.0000     0.0381     0.000
     47     0.5000     0.5000     0.5000     0.0001     30.000   1313.000 225689.000     32.709    41.5367    81.9744   -23.2292    -1.9995     0.0009    26.0000     4.0000     9.0000    22.0000    26.0000    10.0000     5.0000    20.0000     3.0004     1.0000    -0.4998    20.7740    41.5369     1.0633    14.4503    14.4502     1.7090     0.0000     1.0000     0.0380     0.000
     48     0.5100     0.5100     0.5000     0.0001     30.000   1346.000 226114.000     32.770    41.5367    81.2800   -23.4925    -1.9995     0.0009    26.0000     4.0000     9.0000    22.0000    26.0000    10.0000     5.0000    20.0000     3.0004     1.0000    -0.4998    20.7740    41.5369     1.0752    14.4503    14.4502     1.7089     0.0000     1.0000     0.0380     0.000
