# scan = 30
# date = 9/19/2023
# time = 3:44:01 PM
# proposal = 30730
# experiment = Low Temperature Magnetic Structure of CeCl3
# experiment_number = 998
# command = scan slitb_rt 0 20 1
# builtin_command = scan slitb_rt 0 20 1
# users = Adam Aczel, David Mandrus, Matthew Cothrine, Stephen Nagler
# local_contact = A. Aczel
# scan_title = optimze slits
# monochromator = PG002
# analyzer = Pg002
# sense = +-+
# collimation = 40-40-40-80
# samplename = CeBr3
# sampletype = crystal
# samplemosaic = 30.000000
# latticeconstants = 7.911813,7.911813,4.442653,90.000000,90.000000,120.000000
# ubmatrix = 0.075384,0.080477,-0.177039,-0.099473,-0.099471,-0.138870,-0.075649,0.070209,0.006183
# mode = 0
# plane_normal = 0.034896,0.000010,0.999390
# ubconf = UB19Sep2023_24416PM.ini
# preset_type = normal 
# preset_channel = time
# preset_value = 1.000000
# def_x = slitb_rt
# def_y = detector
# col_headers = 
#   Pt.   slitb_rt       time   detector    monitor        mcu         m2         s1         s2        sgl        sgu   slitb_bt   slitb_lf   slitb_tp   slita_bt   slita_lf   slita_rt   slita_tp        stl        stu         sz         a1         a2          q          h          k          l         ei         ef          e        vti     sample       temp dr_tsample    dr_temp
      1     0.0000      1.000   2717.000   7435.000      1.078    41.5367   -13.5221   -47.4887    -1.9995     0.0009    26.0000    20.0000    22.0000    26.0000    10.0000     5.0000    20.0000     3.0008     1.0000    -0.4979    20.7738    41.5367     2.1266     0.9999     1.0000    -1.0000    14.4503    14.4503     0.0000     1.7083     0.0000     1.0000     0.0425     0.000
      2     1.0000      1.000   6581.000   7403.000      1.073    41.5367   -13.5221   -47.4887    -1.9995     0.0009    26.0000    20.0000    22.0000    26.0000    10.0000     5.0000    20.0000     3.0007     1.0000    -0.4979    20.7738    41.5367     2.1266     0.9999     1.0000    -1.0000    14.4503    14.4503     0.0000     1.7083     0.0000     1.0000     0.0425     0.000
      3     2.0000      1.000  12988.000   7609.000      1.103    41.5367   -13.5221   -47.4887    -1.9995     0.0009    26.0000    20.0000    22.0000    26.0000    10.0000     5.0000    20.0000     3.0008     1.0000    -0.4979    20.7738    41.5367     2.1266     0.9999     1.0000    -1.0000    14.4503    14.4503     0.0000     1.7083     0.0000     1.0000     0.0425     0.000
      4     3.0000      1.000  20264.000   7471.000      1.083    41.5367   -13.5221   -47.4887    -1.9995     0.0009    26.0000    20.0000    22.0000    26.0000    10.0000     5.0000    20.0000     3.0007     1.0000    -0.4979    20.7738    41.5367     2.1266     0.9999     1.0000    -1.0000    14.4503    14.4503     0.0000     1.7083     0.0000     1.0000     0.0425     0.000
      5     4.0000      1.000  27776.000   7454.000      1.080    41.5367   -13.5221   -47.4887    -1.9995     0.0009    26.0000    20.0000    22.0000    26.0000    10.0000     5.0000    20.0000     3.0008     1.0000    -0.4979    20.7738    41.5367     2.1266     0.9999     1.0000    -1.0000    14.4503    14.4503     0.0000     1.7083     0.0000     1.0000     0.0425     0.000
      6     5.0000      1.000  32756.000   7518.000      1.090    41.5367   -13.5221   -47.4887    -1.9995     0.0009    26.0000    20.0000    22.0000    26.0000    10.0000     5.0000    20.0000     3.0007     1.0000    -0.4979    20.7738    41.5367     2.1266     0.9999     1.0000    -1.0000    14.4503    14.4503     0.0000     1.7083     0.0000     1.0000     0.0425     0.000
      7     6.0000      1.000  36296.000   7518.000      1.090    41.5367   -13.5221   -47.4887    -1.9995     0.0009    26.0000    20.0000    22.0000    26.0000    10.0000     5.0000    20.0000     3.0008     1.0000    -0.4979    20.7738    41.5367     2.1266     0.9999     1.0000    -1.0000    14.4503    14.4503     0.0000     1.7083     0.0000     1.0000     0.0425     0.000
      8     7.0000      1.000  37527.000   7341.000      1.064    41.5367   -13.5221   -47.4887    -1.9995     0.0009    26.0000    20.0000    22.0000    26.0000    10.0000     5.0000    20.0000     3.0008     1.0000    -0.4979    20.7738    41.5367     2.1266     0.9999     1.0000    -1.0000    14.4503    14.4503     0.0000     1.7083     0.0000     1.0000     0.0425     0.000
      9     8.0000      1.000  37969.000   7511.000      1.089    41.5367   -13.5221   -47.4887    -1.9995     0.0009    26.0000    20.0000    22.0000    26.0000    10.0000     5.0000    20.0000     3.0008     1.0000    -0.4979    20.7738    41.5367     2.1266     0.9999     1.0000    -1.0000    14.4503    14.4503     0.0000     1.7083     0.0000     1.0000     0.0425     0.000
     10     9.0000      1.000  38159.000   7542.000      1.093    41.5367   -13.5221   -47.4887    -1.9995     0.0009    26.0000    20.0000    22.0000    26.0000    10.0000     5.0000    20.0000     3.0008     1.0000    -0.4979    20.7738    41.5367     2.1266     0.9999     1.0000    -1.0000    14.4503    14.4503     0.0000     1.7083     0.0000     1.0000     0.0424     0.000
     11    10.0000      1.000  38337.000   7449.000      1.080    41.5367   -13.5221   -47.4887    -1.9995     0.0009    26.0000    20.0000    22.0000    26.0000    10.0000     5.0000    20.0000     3.0008     1.0000    -0.4979    20.7738    41.5367     2.1266     0.9999     1.0000    -1.0000    14.4503    14.4503     0.0000     1.7083     0.0000     1.0000     0.0424     0.000
     12    11.0000      1.000  38400.000   7450.000      1.080    41.5367   -13.5221   -47.4887    -1.9995     0.0009    26.0000    20.0000    22.0000    26.0000    10.0000     5.0000    20.0000     3.0008     1.0000    -0.4979    20.7738    41.5367     2.1266     0.9999     1.0000    -1.0000    14.4503    14.4503     0.0000     1.7083     0.0000     1.0000     0.0424     0.000
     13    12.0000      1.000  38205.000   7442.000      1.079    41.5367   -13.5221   -47.4887    -1.9995     0.0009    26.0000    20.0000    22.0000    26.0000    10.0000     5.0000    20.0000     3.0009     1.0000    -0.4976    20.7738    41.5367     2.1266     0.9999     1.0000    -1.0000    14.4503    14.4503     0.0000     1.7082     0.0000     1.0000     0.0424     0.000
     14    13.0000      1.000  37709.000   7427.000      1.076    41.5367   -13.5221   -47.4887    -1.9995     0.0009    26.0000    20.0000    22.0000    26.0000    10.0000     5.0000    20.0000     3.0008     1.0000    -0.4978    20.7738    41.5367     2.1266     0.9999     1.0000    -1.0000    14.4503    14.4503     0.0000     1.7082     0.0000     1.0000     0.0424     0.000
     15    14.0000      1.000  38341.000   7474.000      1.083    41.5367   -13.5221   -47.4887    -1.9995     0.0009    26.0000    20.0000    22.0000    26.0000    10.0000     5.0000    20.0000     3.0008     1.0000    -0.4978    20.7738    41.5367     2.1266     0.9999     1.0000    -1.0000    14.4503    14.4503     0.0000     1.7082     0.0000     1.0000     0.0424     0.000
     16    15.0000      1.000  38172.000   7403.000      1.073    41.5367   -13.5221   -47.4887    -1.9995     0.0009    26.0000    20.0000    22.0000    26.0000    10.0000     5.0000    20.0000     3.0008     1.0000    -0.4978    20.7738    41.5367     2.1266     0.9999     1.0000    -1.0000    14.4503    14.4503     0.0000     1.7082     0.0000     1.0000     0.0424     0.000
     17    16.0000      1.000  37814.000   7526.000      1.091    41.5367   -13.5221   -47.4887    -1.9995     0.0009    26.0000    20.0000    22.0000    26.0000    10.0000     5.0000    20.0000     3.0008     1.0000    -0.4979    20.7738    41.5367     2.1266     0.9999     1.0000    -1.0000    14.4503    14.4503     0.0000     1.7082     0.0000     1.0000     0.0424     0.000
     18    17.0000      1.000  37972.000   7551.000      1.094    41.5367   -13.5221   -47.4887    -1.9995     0.0009    26.0000    20.0000    22.0000    26.0000    10.0000     5.0000    20.0000     3.0008     1.0000    -0.4978    20.7738    41.5367     2.1266     0.9999     1.0000    -1.0000    14.4503    14.4503     0.0000     1.7082     0.0000     1.0000     0.0424     0.000
     19    18.0000      1.000  38198.000   7497.000      1.087    41.5367   -13.5221   -47.4887    -1.9995     0.0009    26.0000    20.0000    22.0000    26.0000    10.0000     5.0000    20.0000     3.0007     1.0000    -0.4978    20.7738    41.5367     2.1266     0.9999     1.0000    -1.0000    14.4503    14.4503     0.0000     1.7082     0.0000     1.0000     0.0424     0.000
     20    19.0000      1.000  38095.000   7503.000      1.087    41.5367   -13.5221   -47.4887    -1.9995     0.0009    26.0000    20.0000    22.0000    26.0000    10.0000     5.0000    20.0000     3.0008     1.0000    -0.4979    20.7738    41.5367     2.1266     0.9999     1.0000    -1.0000    14.4503    14.4503     0.0000     1.7082     0.0000     1.0000     0.0424     0.000
     21    20.0000      1.000  37960.000   7452.000      1.080    41.5367   -13.5221   -47.4887    -1.9995     0.0009    26.0000    20.0000    22.0000    26.0000    10.0000     5.0000    20.0000     3.0008     1.0000    -0.4979    20.7738    41.5367     2.1266     0.9999     1.0000    -1.0000    14.4503    14.4503     0.0000     1.7082     0.0000     1.0000     0.0424     0.000
# Sum of Counts = 672236
# Center of Mass = 11.574505+/-0.020967
# Full Width Half-Maximum = 10.502242+/-0.014252
# 3:45:20 PM  9/19/2023   scan completed.
