# scan = 35
# date = 9/20/2023
# time = 12:55:45 AM
# proposal = 30730
# experiment = Low Temperature Magnetic Structure of CeCl3
# experiment_number = 998
# command = scan h 1 k 1 l 0.25 2.25 0.005 e 0 preset time 30
# builtin_command = scan h 1 k 1 l 0.25 2.25 0.005 e 0 preset time 30
# users = Adam Aczel, David Mandrus, Matthew Cothrine, Stephen Nagler
# local_contact = A. Aczel
# scan_title = CeBr3, (1 1 L) scan, T = 0.04 K
# monochromator = PG002
# analyzer = Pg002
# sense = +-+
# collimation = 40-40-40-80
# samplename = CeBr3
# sampletype = crystal
# samplemosaic = 30.000000
# latticeconstants = 7.911813,7.911813,4.442653,90.000000,90.000000,120.000000
# ubmatrix = 0.075384,0.080477,-0.177039,-0.099473,-0.099471,-0.138870,-0.075649,0.070209,0.006183
# mode = 0
# plane_normal = 0.034896,0.000010,0.999390
# ubconf = UB19Sep2023_24416PM.ini
# preset_type = normal
# preset_channel = time
# preset_value = 30.000000
# def_x = l
# def_y = detector
# col_headers =
#   Pt.          h          k          l          e       time   detector    monitor        mcu         m2         s1         s2        sgl        sgu   slitb_bt   slitb_lf   slitb_rt   slitb_tp   slita_bt   slita_lf   slita_rt   slita_tp        stl        stu         sz         a1         a2          q         ei         ef        vti     sample       temp dr_tsample    dr_temp
      1     1.0000     1.0000     0.2500     0.0001     30.000    852.000 225834.000     32.730    41.5367    46.5118   -35.8893    -1.9995     0.0009    26.0000     4.0000     9.0000    22.0000    26.0000    10.0000     5.0000    20.0000     3.0006     1.0000    -0.4987    20.7740    41.5368     1.6272    14.4503    14.4502     1.7028     0.0000     1.0000     0.0381     0.000
      2     1.0000     1.0000     0.2550     0.0001     30.000    896.000 225560.000     32.690    41.5367    46.7375   -35.9246    -1.9995     0.0009    26.0000     4.0000     9.0000    22.0000    26.0000    10.0000     5.0000    20.0000     3.0007     1.0000    -0.4986    20.7740    41.5368     1.6288    14.4503    14.4502     1.7031     0.0000     1.0000     0.0387     0.000
      3     1.0000     1.0000     0.2600     0.0001     30.000    890.000 225938.000     32.745    41.5367    46.9615   -35.9594    -1.9995     0.0009    26.0000     4.0000     9.0000    22.0000    26.0000    10.0000     5.0000    20.0000     3.0006     1.0000    -0.4989    20.7740    41.5368     1.6303    14.4503    14.4502     1.7033     0.0000     1.0000     0.0387     0.000
      4     1.0000     1.0000     0.2650     0.0001     30.000    862.000 224339.000     32.513    41.5367    47.1851   -35.9972    -1.9995     0.0009    26.0000     4.0000     9.0000    22.0000    26.0000    10.0000     5.0000    20.0000     3.0006     1.0000    -0.4986    20.7740    41.5368     1.6320    14.4503    14.4502     1.7035     0.0000     1.0000     0.0388     0.000
      5     1.0000     1.0000     0.2700     0.0001     30.000    900.000 225513.000     32.683    41.5367    47.4082   -36.0349    -1.9995     0.0009    26.0000     4.0000     9.0000    22.0000    26.0000    10.0000     5.0000    20.0000     3.0006     1.0000    -0.4985    20.7740    41.5368     1.6336    14.4503    14.4502     1.7036     0.0000     1.0000     0.0388     0.000
      6     1.0000     1.0000     0.2750     0.0001     30.000    858.000 225244.000     32.644    41.5367    47.6297   -36.0732    -1.9995     0.0009    26.0000     4.0000     9.0000    22.0000    26.0000    10.0000     5.0000    20.0000     3.0007     1.0000    -0.4988    20.7740    41.5368     1.6353    14.4503    14.4502     1.7036     0.0000     1.0000     0.0386     0.000
      7     1.0000     1.0000     0.2800     0.0001     30.000    849.000 224508.000     32.537    41.5367    47.8506   -36.1116    -1.9995     0.0009    26.0000     4.0000     9.0000    22.0000    26.0000    10.0000     5.0000    20.0000     3.0006     1.0000    -0.4990    20.7740    41.5368     1.6370    14.4503    14.4502     1.7038     0.0000     1.0000     0.0386     0.000
      8     1.0000     1.0000     0.2850     0.0001     30.000    843.000 225529.000     32.685    41.5367    48.0705   -36.1494    -1.9995     0.0009    26.0000     4.0000     9.0000    22.0000    26.0000    10.0000     5.0000    20.0000     3.0007     1.0000    -0.4987    20.7740    41.5368     1.6386    14.4503    14.4502     1.7039     0.0000     1.0000     0.0387     0.000
      9     1.0000     1.0001     0.2900     0.0001     30.000    863.000 225805.000     32.725    41.5367    48.2899   -36.1923    -1.9995     0.0009    26.0000     4.0000     9.0000    22.0000    26.0000    10.0000     5.0000    20.0000     3.0007     1.0000    -0.4990    20.7740    41.5368     1.6405    14.4503    14.4502     1.7039     0.0000     1.0000     0.0388     0.000
     10     0.9999     1.0000     0.2950     0.0001     30.000    866.000 224261.000     32.502    41.5367    48.5089   -36.2283    -1.9995     0.0009    26.0000     4.0000     9.0000    22.0000    26.0000    10.0000     5.0000    20.0000     3.0007     1.0000    -0.4989    20.7740    41.5368     1.6421    14.4503    14.4502     1.7040     0.0000     1.0000     0.0388     0.000
     11     0.9999     1.0000     0.3000     0.0001     30.000    844.000 225494.000     32.680    41.5367    48.7269   -36.2704    -1.9995     0.0009    26.0000     4.0000     9.0000    22.0000    26.0000    10.0000     5.0000    20.0000     3.0007     1.0000    -0.4986    20.7740    41.5368     1.6439    14.4503    14.4502     1.7041     0.0000     1.0000     0.0388     0.000
     12     1.0000     1.0000     0.3050     0.0001     30.000    830.000 225402.000     32.667    41.5367    48.9435   -36.3134    -1.9995     0.0009    26.0000     4.0000     9.0000    22.0000    26.0000    10.0000     5.0000    20.0000     3.0007     1.0000    -0.4985    20.7740    41.5368     1.6458    14.4503    14.4502     1.7041     0.0000     1.0000     0.0388     0.000
     13     1.0000     1.0000     0.3100     0.0001     30.000    856.000 225539.000     32.687    41.5367    49.1589   -36.3571    -1.9995     0.0009    26.0000     4.0000     9.0000    22.0000    26.0000    10.0000     5.0000    20.0000     3.0006     1.0000    -0.4989    20.7740    41.5368     1.6477    14.4503    14.4502     1.7042     0.0000     1.0000     0.0388     0.000
     14     1.0000     1.0000     0.3150     0.0001     30.000    843.000 225460.000     32.675    41.5367    49.3746   -36.4001    -1.9995     0.0009    26.0000     4.0000     9.0000    22.0000    26.0000    10.0000     5.0000    20.0000     3.0007     1.0000    -0.4989    20.7739    41.5368     1.6496    14.4503    14.4502     1.7042     0.0000     1.0000     0.0388     0.000
     15     1.0000     1.0000     0.3200     0.0001     30.000    784.000 225888.000     32.737    41.5367    49.5887   -36.4425    -1.9995     0.0009    26.0000     4.0000     9.0000    22.0000    26.0000    10.0000     5.0000    20.0000     3.0007     1.0000    -0.4986    20.7740    41.5368     1.6515    14.4503    14.4502     1.7042     0.0000     1.0000     0.0391     0.000
     16     1.0000     1.0000     0.3250     0.0001     30.000    808.000 225101.000     32.623    41.5367    49.8022   -36.4875    -1.9995     0.0009    26.0000     4.0000     9.0000    22.0000    26.0000    10.0000     5.0000    20.0000     3.0007     1.0000    -0.4986    20.7739    41.5368     1.6534    14.4503    14.4502     1.7043     0.0000     1.0000     0.0391     0.000
     17     1.0000     1.0000     0.3300     0.0001     30.000    867.000 225917.000     32.742    41.5367    50.0152   -36.5327    -1.9995     0.0009    26.0000     4.0000     9.0000    22.0000    26.0000    10.0000     5.0000    20.0000     3.0007     1.0000    -0.4987    20.7739    41.5368     1.6554    14.4503    14.4502     1.7043     0.0000     1.0000     0.0391     0.000
     18     1.0000     1.0000     0.3350     0.0001     30.000    905.000 224250.000     32.500    41.5367    50.2264   -36.5785    -1.9995     0.0009    26.0000     4.0000     9.0000    22.0000    26.0000    10.0000     5.0000    20.0000     3.0007     1.0000    -0.4988    20.7739    41.5368     1.6574    14.4503    14.4502     1.7043     0.0000     1.0000     0.0388     0.000
     19     1.0000     1.0000     0.3400     0.0001     30.000    894.000 225629.000     32.700    41.5367    50.4375   -36.6266    -1.9995     0.0009    26.0000     4.0000     9.0000    22.0000    26.0000    10.0000     5.0000    20.0000     3.0007     1.0000    -0.4990    20.7739    41.5368     1.6595    14.4503    14.4502     1.7044     0.0000     1.0000     0.0388     0.000
     20     1.0000     1.0000     0.3450     0.0001     30.000    871.000 225418.000     32.669    41.5367    50.6472   -36.6721    -1.9995     0.0009    26.0000     4.0000     9.0000    22.0000    26.0000    10.0000     5.0000    20.0000     3.0007     1.0000    -0.4987    20.7739    41.5368     1.6615    14.4503    14.4502     1.7043     0.0000     1.0000     0.0387     0.000
     21     1.0000     1.0000     0.3500     0.0001     30.000    824.000 226378.000     32.808    41.5367    50.8561   -36.7216    -1.9995     0.0009    26.0000     4.0000     9.0000    22.0000    26.0000    10.0000     5.0000    20.0000     3.0007     1.0000    -0.4990    20.7739    41.5368     1.6637    14.4503    14.4502     1.7044     0.0000     1.0000     0.0387     0.000
     22     0.9999     1.0000     0.3550     0.0001     30.000    880.000 224993.000     32.608    41.5367    51.0637   -36.7676    -1.9995     0.0009    26.0000     4.0000     9.0000    22.0000    26.0000    10.0000     5.0000    20.0000     3.0007     1.0000    -0.4987    20.7739    41.5368     1.6657    14.4503    14.4502     1.7045     0.0000     1.0000     0.0390     0.000
     23     1.0000     1.0000     0.3600     0.0001     30.000    855.000 225538.000     32.687    41.5367    51.2708   -36.8182    -1.9995     0.0009    26.0000     4.0000     9.0000    22.0000    26.0000    10.0000     5.0000    20.0000     3.0007     1.0000    -0.4989    20.7739    41.5368     1.6679    14.4503    14.4502     1.7045     0.0000     1.0000     0.0390     0.000
     24     1.0000     1.0000     0.3650     0.0001     30.000    861.000 224678.000     32.562    41.5367    51.4772   -36.8666    -1.9995     0.0009    26.0000     4.0000     9.0000    22.0000    26.0000    10.0000     5.0000    20.0000     3.0007     1.0000    -0.4990    20.7739    41.5368     1.6700    14.4503    14.4502     1.7044     0.0000     1.0000     0.0390     0.000
     25     1.0000     1.0000     0.3700     0.0001     30.000    880.000 225652.000     32.703    41.5367    51.6826   -36.9187    -1.9995     0.0009    26.0000     4.0000     9.0000    22.0000    26.0000    10.0000     5.0000    20.0000     3.0007     1.0000    -0.4987    20.7739    41.5368     1.6723    14.4503    14.4502     1.7044     0.0000     1.0000     0.0390     0.000
     26     1.0000     1.0000     0.3750     0.0001     30.000    869.000 226587.000     32.839    41.5367    51.8868   -36.9694    -1.9995     0.0009    26.0000     4.0000     9.0000    22.0000    26.0000    10.0000     5.0000    20.0000     3.0008     1.0000    -0.4987    20.7739    41.5368     1.6745    14.4503    14.4502     1.7044     0.0000     1.0000     0.0391     0.000
     27     1.0000     1.0000     0.3800     0.0001     30.000    870.000 225043.000     32.615    41.5367    52.0900   -37.0196    -1.9995     0.0009    26.0000     4.0000     9.0000    22.0000    26.0000    10.0000     5.0000    20.0000     3.0007     1.0000    -0.4989    20.7739    41.5368     1.6767    14.4503    14.4502     1.7044     0.0000     1.0000     0.0391     0.000
     28     1.0000     1.0000     0.3850     0.0001     30.000    937.000 224704.000     32.566    41.5367    52.2925   -37.0726    -1.9995     0.0009    26.0000     4.0000     9.0000    22.0000    26.0000    10.0000     5.0000    20.0000     3.0007     1.0000    -0.4991    20.7739    41.5368     1.6790    14.4503    14.4502     1.7044     0.0000     1.0000     0.0387     0.000
     29     1.0000     1.0000     0.3900     0.0001     30.000    841.000 226047.000     32.760    41.5367    52.4942   -37.1243    -1.9995     0.0009    26.0000     4.0000     9.0000    22.0000    26.0000    10.0000     5.0000    20.0000     3.0008     1.0000    -0.4990    20.7739    41.5368     1.6813    14.4503    14.4502     1.7045     0.0000     1.0000     0.0391     0.000
     30     1.0000     1.0000     0.3950     0.0001     30.000    867.000 225730.000     32.714    41.5367    52.6950   -37.1799    -1.9995     0.0009    26.0000     4.0000     9.0000    22.0000    26.0000    10.0000     5.0000    20.0000     3.0007     1.0000    -0.4986    20.7739    41.5368     1.6837    14.4503    14.4502     1.7045     0.0000     1.0000     0.0391     0.000
     31     1.0000     1.0000     0.4000     0.0001     30.000    941.000 225916.000     32.741    41.5367    52.8944   -37.2343    -1.9995     0.0009    26.0000     4.0000     9.0000    22.0000    26.0000    10.0000     5.0000    20.0000     3.0007     1.0000    -0.4991    20.7739    41.5368     1.6861    14.4503    14.4502     1.7046     0.0000     1.0000     0.0386     0.000
     32     1.0000     1.0000     0.4050     0.0001     30.000    884.000 225246.000     32.644    41.5367    53.0930   -37.2885    -1.9995     0.0009    26.0000     4.0000     9.0000    22.0000    26.0000    10.0000     5.0000    20.0000     3.0007     1.0000    -0.4991    20.7739    41.5368     1.6885    14.4503    14.4502     1.7046     0.0000     1.0000     0.0386     0.000
     33     1.0000     1.0000     0.4100     0.0001     30.000    898.000 224867.000     32.589    41.5367    53.2912   -37.3431    -1.9995     0.0009    26.0000     4.0000     9.0000    22.0000    26.0000    10.0000     5.0000    20.0000     3.0007     1.0000    -0.4990    20.7739    41.5368     1.6908    14.4503    14.4502     1.7046     0.0000     1.0000     0.0385     0.000
     34     1.0000     1.0000     0.4150     0.0001     30.000    880.000 225989.000     32.752    41.5367    53.4878   -37.3994    -1.9995     0.0009    26.0000     4.0000     9.0000    22.0000    26.0000    10.0000     5.0000    20.0000     3.0007     1.0000    -0.4992    20.7739    41.5368     1.6933    14.4503    14.4502     1.7046     0.0000     1.0000     0.0385     0.000
     35     1.0000     1.0000     0.4200     0.0001     30.000    945.000 225827.000     32.729    41.5367    53.6838   -37.4564    -1.9995     0.0009    26.0000     4.0000     9.0000    22.0000    26.0000    10.0000     5.0000    20.0000     3.0008     1.0000    -0.4990    20.7739    41.5368     1.6958    14.4503    14.4502     1.7046     0.0000     1.0000     0.0386     0.000
     36     1.0000     1.0000     0.4250     0.0001     30.000    927.000 225019.000     32.611    41.5367    53.8782   -37.5128    -1.9995     0.0009    26.0000     4.0000     9.0000    22.0000    26.0000    10.0000     5.0000    20.0000     3.0007     1.0000    -0.4989    20.7739    41.5368     1.6983    14.4503    14.4502     1.7046     0.0000     1.0000     0.0386     0.000
     37     1.0000     1.0000     0.4300     0.0001     30.000    979.000 225326.000     32.656    41.5367    54.0725   -37.5710    -1.9995     0.0009    26.0000     4.0000     9.0000    22.0000    26.0000    10.0000     5.0000    20.0000     3.0008     1.0000    -0.4988    20.7739    41.5368     1.7008    14.4503    14.4502     1.7046     0.0000     1.0000     0.0386     0.000
     38     1.0000     1.0000     0.4350     0.0001     30.000    979.000 225803.000     32.725    41.5367    54.2659   -37.6294    -1.9995     0.0009    26.0000     4.0000     9.0000    22.0000    26.0000    10.0000     5.0000    20.0000     3.0007     1.0000    -0.4989    20.7739    41.5368     1.7033    14.4503    14.4502     1.7046     0.0000     1.0000     0.0384     0.000
     39     1.0000     1.0000     0.4400     0.0001     30.000    943.000 225191.000     32.636    41.5367    54.4578   -37.6873    -1.9995     0.0009    26.0000     4.0000     9.0000    22.0000    26.0000    10.0000     5.0000    20.0000     3.0007     1.0000    -0.4992    20.7739    41.5368     1.7059    14.4503    14.4502     1.7046     0.0000     1.0000     0.0384     0.000
     40     1.0000     1.0000     0.4450     0.0001     30.000    853.000 224772.000     32.576    41.5367    54.6486   -37.7476    -1.9995     0.0009    26.0000     4.0000     9.0000    22.0000    26.0000    10.0000     5.0000    20.0000     3.0007     1.0000    -0.4992    20.7739    41.5368     1.7085    14.4503    14.4502     1.7046     0.0000     1.0000     0.0385     0.000
     41     1.0000     1.0000     0.4500     0.0001     30.000    875.000 225580.000     32.693    41.5367    54.8387   -37.8064    -1.9995     0.0009    26.0000     4.0000     9.0000    22.0000    26.0000    10.0000     5.0000    20.0000     3.0007     1.0000    -0.4992    20.7739    41.5368     1.7111    14.4503    14.4502     1.7047     0.0000     1.0000     0.0385     0.000
     42     1.0000     1.0000     0.4550     0.0001     30.000    896.000 224458.000     32.530    41.5367    55.0277   -37.8675    -1.9995     0.0009    26.0000     4.0000     9.0000    22.0000    26.0000    10.0000     5.0000    20.0000     3.0007     1.0000    -0.4992    20.7739    41.5368     1.7137    14.4503    14.4502     1.7047     0.0000     1.0000     0.0388     0.000
     43     1.0000     1.0000     0.4600     0.0001     30.000    938.000 225588.000     32.694    41.5367    55.2163   -37.9284    -1.9995     0.0009    26.0000     4.0000     9.0000    22.0000    26.0000    10.0000     5.0000    20.0000     3.0008     1.0000    -0.4991    20.7739    41.5368     1.7164    14.4503    14.4502     1.7046     0.0000     1.0000     0.0388     0.000
     44     1.0000     1.0000     0.4650     0.0001     30.000    911.000 225703.000     32.711    41.5367    55.4036   -37.9894    -1.9995     0.0009    26.0000     4.0000     9.0000    22.0000    26.0000    10.0000     5.0000    20.0000     3.0007     1.0000    -0.4991    20.7738    41.5368     1.7190    14.4503    14.4502     1.7046     0.0000     1.0000     0.0384     0.000
     45     1.0000     1.0000     0.4700     0.0001     30.000    906.000 226297.000     32.797    41.5367    55.5900   -38.0526    -1.9995     0.0009    26.0000     4.0000     9.0000    22.0000    26.0000    10.0000     5.0000    20.0000     3.0007     1.0000    -0.4991    20.7739    41.5368     1.7218    14.4503    14.4502     1.7046     0.0000     1.0000     0.0384     0.000
     46     1.0000     1.0000     0.4750     0.0001     30.000    887.000 226000.000     32.754    41.5367    55.7754   -38.1150    -1.9995     0.0009    26.0000     4.0000     9.0000    22.0000    26.0000    10.0000     5.0000    20.0000     3.0007     1.0000    -0.4988    20.7739    41.5368     1.7245    14.4503    14.4502     1.7047     0.0000     1.0000     0.0387     0.000
     47     1.0000     1.0000     0.4800     0.0001     30.000    931.000 225187.000     32.636    41.5367    55.9593   -38.1776    -1.9995     0.0009    26.0000     4.0000     9.0000    22.0000    26.0000    10.0000     5.0000    20.0000     3.0007     1.0000    -0.4990    20.7739    41.5368     1.7272    14.4503    14.4502     1.7046     0.0000     1.0000     0.0386     0.000
     48     1.0000     1.0000     0.4850     0.0001     30.000    858.000 225000.000     32.609    41.5367    56.1424   -38.2420    -1.9995     0.0009    26.0000     4.0000     9.0000    22.0000    26.0000    10.0000     5.0000    20.0000     3.0007     1.0000    -0.4992    20.7739    41.5368     1.7300    14.4503    14.4502     1.7047     0.0000     1.0000     0.0386     0.000
