# scan = 132
# date = 4/10/2024
# time = 3:54:28 AM
# proposal = 33477
# experiment = Commissioning and enabling the 4-circle capability at VERITAS
# experiment_number = 1012
# command = scanrel s1 1 -1 0.1
# builtin_command = scan s1 @(s1)+1 @(s1)+-1 0.100000
# users = Feng Ye, Mike McDowell, Adam Aczel, Bing Li, Wei Tian, Bing Li
# local_contact = Wei Tian, Adam Aczel
# scan_title = La2Ni7-FC, (1 0 -9), rocking
# monochromator = PG002
# analyzer = Pg002
# sense = +-+
# collimation = 40-40-40-80
# samplename = La2Ni7, Al-doped CuFeO2
# sampletype = crystal
# samplemosaic = 30.000000
# latticeconstants =
# ubmatrix =
# mode = 0
# plane_normal = 0.000000,0.000000,0.000000
# ubconf = /C/SPICE/User/exp1012/UBConf/UB09Apr2024_32926PM.ini
# preset_type = normal
# preset_channel = mcu
# preset_value = 10.000000
# def_x = s1
# def_y = detector
# col_headers =
#   Pt.         s1       time   detector    monitor        mcu         m2        chi        phi         s2        sgl        sgu   slitb_bt   slitb_lf   slitb_rt   slitb_tp   slita_bt   slita_lf   slita_rt   slita_tp         a1         a2          q          h          k          l         ei         ef          e
      1   -29.9143     11.122    964.000 106661.000     10.000    41.5367    17.0865   -65.1095   -61.8307     0.0409     0.0130    20.0000    10.0000    10.0000    20.0000    10.0000    10.0000    10.0000    10.0000    20.7603    -0.0011     2.7135     0.0000     0.0000     0.0000    14.4503    14.4503     0.000
      2   -30.0140     11.173    973.000 106661.000     10.000    41.5367    17.0865   -65.1095   -61.8307     0.0409     0.0130    20.0000    10.0000    10.0000    20.0000    10.0000    10.0000    10.0000    10.0000    20.7603    -0.0011     2.7135     0.0000     0.0000     0.0000    14.4503    14.4503     0.000
      3   -30.1139     11.171    988.000 106661.000     10.000    41.5367    17.0865   -65.1095   -61.8307     0.0409     0.0130    20.0000    10.0000    10.0000    20.0000    10.0000    10.0000    10.0000    10.0000    20.7603    -0.0011     2.7135     0.0000     0.0000     0.0000    14.4503    14.4503     0.000
      4   -30.2138     11.126    940.000 106661.000     10.000    41.5367    17.0865   -65.1095   -61.8307     0.0409     0.0130    20.0000    10.0000    10.0000    20.0000    10.0000    10.0000    10.0000    10.0000    20.7603    -0.0011     2.7135     0.0000     0.0000     0.0000    14.4503    14.4503     0.000
      5   -30.3137     11.122   1046.000 106661.000     10.000    41.5367    17.0865   -65.1095   -61.8307     0.0409     0.0130    20.0000    10.0000    10.0000    20.0000    10.0000    10.0000    10.0000    10.0000    20.7603    -0.0011     2.7135     0.0000     0.0000     0.0000    14.4503    14.4503     0.000
      6   -30.4142     11.123   1056.000 106661.000     10.000    41.5367    17.0865   -65.1095   -61.8307     0.0409     0.0130    20.0000    10.0000    10.0000    20.0000    10.0000    10.0000    10.0000    10.0000    20.7603    -0.0011     2.7135     0.0000     0.0000     0.0000    14.4503    14.4503     0.000
      7   -30.5144     11.115   1227.000 106661.000     10.000    41.5367    17.0865   -65.1095   -61.8307     0.0409     0.0130    20.0000    10.0000    10.0000    20.0000    10.0000    10.0000    10.0000    10.0000    20.7603    -0.0011     2.7135     0.0000     0.0000     0.0000    14.4503    14.4503     0.000
      8   -30.6144     11.157   2274.000 106661.000     10.000    41.5367    17.0865   -65.1095   -61.8307     0.0409     0.0130    20.0000    10.0000    10.0000    20.0000    10.0000    10.0000    10.0000    10.0000    20.7603    -0.0011     2.7135     0.0000     0.0000     0.0000    14.4503    14.4503     0.000
      9   -30.7145     11.098   6667.000 106661.000     10.000    41.5367    17.0865   -65.1095   -61.8307     0.0409     0.0130    20.0000    10.0000    10.0000    20.0000    10.0000    10.0000    10.0000    10.0000    20.7603    -0.0011     2.7135     0.0000     0.0000     0.0000    14.4503    14.4503     0.000
     10   -30.8140     11.113  14384.000 106661.000     10.000    41.5367    17.0865   -65.1095   -61.8307     0.0409     0.0130    20.0000    10.0000    10.0000    20.0000    10.0000    10.0000    10.0000    10.0000    20.7603    -0.0011     2.7135     0.0000     0.0000     0.0000    14.4503    14.4503     0.000
     11   -30.9140     11.089  19745.000 106661.000     10.000    41.5367    17.0865   -65.1095   -61.8307     0.0409     0.0130    20.0000    10.0000    10.0000    20.0000    10.0000    10.0000    10.0000    10.0000    20.7603    -0.0011     2.7135     0.0000     0.0000     0.0000    14.4503    14.4503     0.000
     12   -31.0144     11.121  16801.000 106661.000     10.000    41.5367    17.0865   -65.1095   -61.8307     0.0409     0.0130    20.0000    10.0000    10.0000    20.0000    10.0000    10.0000    10.0000    10.0000    20.7603    -0.0011     2.7135     0.0000     0.0000     0.0000    14.4503    14.4503     0.000
     13   -31.1140     11.074   9660.000 106661.000     10.000    41.5367    17.0865   -65.1095   -61.8307     0.0409     0.0130    20.0000    10.0000    10.0000    20.0000    10.0000    10.0000    10.0000    10.0000    20.7603    -0.0011     2.7135     0.0000     0.0000     0.0000    14.4503    14.4503     0.000
     14   -31.2137     11.141   4980.000 106661.000     10.000    41.5367    17.0865   -65.1095   -61.8307     0.0409     0.0130    20.0000    10.0000    10.0000    20.0000    10.0000    10.0000    10.0000    10.0000    20.7603    -0.0011     2.7135     0.0000     0.0000     0.0000    14.4503    14.4503     0.000
     15   -31.3138     11.062   2434.000 106661.000     10.000    41.5367    17.0865   -65.1095   -61.8307     0.0409     0.0130    20.0000    10.0000    10.0000    20.0000    10.0000    10.0000    10.0000    10.0000    20.7603    -0.0011     2.7135     0.0000     0.0000     0.0000    14.4503    14.4503     0.000
     16   -31.4141     11.036   1426.000 106661.000     10.000    41.5367    17.0865   -65.1095   -61.8307     0.0409     0.0130    20.0000    10.0000    10.0000    20.0000    10.0000    10.0000    10.0000    10.0000    20.7603    -0.0011     2.7135     0.0000     0.0000     0.0000    14.4503    14.4503     0.000
     17   -31.5145     11.077   1186.000 106661.000     10.000    41.5367    17.0865   -65.1095   -61.8307     0.0409     0.0130    20.0000    10.0000    10.0000    20.0000    10.0000    10.0000    10.0000    10.0000    20.7603    -0.0011     2.7135     0.0000     0.0000     0.0000    14.4503    14.4503     0.000
     18   -31.6145     11.111   1074.000 106661.000     10.000    41.5367    17.0865   -65.1095   -61.8307     0.0409     0.0130    20.0000    10.0000    10.0000    20.0000    10.0000    10.0000    10.0000    10.0000    20.7603    -0.0011     2.7135     0.0000     0.0000     0.0000    14.4503    14.4503     0.000
     19   -31.7144     11.138   1118.000 106661.000     10.000    41.5367    17.0865   -65.1095   -61.8307     0.0409     0.0130    20.0000    10.0000    10.0000    20.0000    10.0000    10.0000    10.0000    10.0000    20.7603    -0.0011     2.7135     0.0000     0.0000     0.0000    14.4503    14.4503     0.000
     20   -31.8142     11.099   1179.000 106661.000     10.000    41.5367    17.0865   -65.1095   -61.8307     0.0409     0.0130    20.0000    10.0000    10.0000    20.0000    10.0000    10.0000    10.0000    10.0000    20.7603    -0.0011     2.7135     0.0000     0.0000     0.0000    14.4503    14.4503     0.000
     21   -31.9142     11.107   1146.000 106661.000     10.000    41.5367    17.0865   -65.1095   -61.8307     0.0409     0.0130    20.0000    10.0000    10.0000    20.0000    10.0000    10.0000    10.0000    10.0000    20.7603    -0.0011     2.7135     0.0000     0.0000     0.0000    14.4503    14.4503     0.000
# Sum of Counts = 91268
# Center of Mass = -30.946658+/-0.144871
# Full Width Half-Maximum = 0.652654+/-0.045633
# 3:58:38 AM  4/10/2024   scan completed.
