# scan = 441
# date = 4/11/2024
# time = 1:19:13 PM
# proposal = 33477
# experiment = Commissioning and enabling the 4-circle capability at VERITAS
# experiment_number = 1012
# command = scanrel chi 6 -6 1
# builtin_command = scan chi @(chi)+6 @(chi)+-6 1.000000
# users = Feng Ye, Mike McDowell, Adam Aczel, Bing Li, Wei Tian, Bing Li
# local_contact = Wei Tian, Adam Aczel
# scan_title = Co-doped MnWO4-FC, look for [010]
# monochromator = PG002
# analyzer = Pg002
# sense = +-+
# collimation = 40-40-40-80
# samplename = La2Ni7, Al-doped CuFeO2
# sampletype = crystal
# samplemosaic = 30.000000
# latticeconstants = 4.830000,5.760000,5.000000,90.000000,91.300000,90.000000
# ubmatrix = -0.000148,0.173611,-0.000006,0.000047,0.000003,0.200001,0.207093,0.000124,0.004493
# mode = 0
# plane_normal = -0.000714,0.000226,1.000000
# ubconf = UB11Apr2024_10925PM.ini
# preset_type = normal 
# preset_channel = mcu
# preset_value = 3.000000
# def_x = chi
# def_y = detector
# col_headers = 
#   Pt.        chi       time   detector    monitor        mcu         m2        phi         s1         s2        sgl        sgu   slitb_bt   slitb_lf   slitb_rt   slitb_tp   slita_bt   slita_lf   slita_rt   slita_tp         a1         a2          q          h          k          l         ei         ef          e
      1     6.0015      3.333   1192.000  31999.000      3.000    41.5367   154.2001   -11.9199   -23.8362     0.0409     0.0130    20.0000    10.0000    10.0000    20.0000    15.0000    10.0000    10.0000    15.0000    20.7608    -0.0010     1.0907    -0.0000     0.9999     0.0000    14.4503    14.4503     0.000
      2     5.0008      3.316   1838.000  31999.000      3.000    41.5367   154.2001   -11.9199   -23.8362     0.0409     0.0130    20.0000    10.0000    10.0000    20.0000    15.0000    10.0000    10.0000    15.0000    20.7608    -0.0010     1.0907    -0.0000     0.9999     0.0000    14.4503    14.4503     0.000
      3     4.3978      0.000      0.000      0.000      0.000    41.5367   154.2001   -11.9200   -23.8362     0.0409     0.0130    20.0000    10.0000    10.0000    20.0000    15.0000    10.0000    10.0000    15.0000    20.7608    -0.0010     1.0907    -0.0000     0.9999     0.0000    14.4503    14.4503     0.000
# Sum of Counts = 3030
# Center of Mass = 5.394475+/-0.138878
# Full Width Half-Maximum = 0.977692+/-0.192337
# 1:19:33 PM  4/11/2024   scan stopped!!
