# scan = 1847
# date = 4/15/2024
# time = 5:06:47 PM
# proposal = 33477
# experiment = Commissioning and enabling the 4-circle capability at VERITAS
# experiment_number = 1012
# command = th2th 2 -2 0.2
# builtin_command = scan s2 @(s2)+2 @(s2)+-2 0.200000 s1 @(s1)+(2/2) @(s1)+(-2/2) 0.100000
# users = Feng Ye, Mike McDowell, Adam Aczel, Bing Li, Wei Tian, Bing Li
# local_contact = Wei Tian, Adam Aczel
# scan_title = Nuclear_300K (0.00 0.00 -4.00 )
# monochromator = PG002
# analyzer = Pg002
# sense = +-+
# collimation = 40-40-40-80
# samplename = La2Ni7, Al-doped CuFeO2
# sampletype = crystal
# samplemosaic = 30.000000
# latticeconstants = 5.263000,5.582000,7.591000,90.000000,90.000000,90.000000
# ubmatrix = -0.000000,0.179117,-0.000000,-0.000000,0.003291,-0.000000,-0.000000,0.000127,-0.000000
# mode = 0
# plane_normal = -0.000714,0.000226,1.000000
# ubconf = UB15Apr2024_11557PM.ini
# preset_type = normal 
# preset_channel = mcu
# preset_value = 1.000000
# def_x = s2
# def_y = detector
# col_headers = 
#   Pt.         s2         s1       time   detector    monitor        mcu         m2        chi        phi        sgl        sgu   slitb_bt   slitb_lf   slitb_rt   slitb_tp   slita_bt   slita_lf   slita_rt   slita_tp         a1         a2          q          h          k          l         ei         ef          e    coldtip     sample       temp
      1   -75.6772   -37.9315      1.017      3.000   9801.000      1.000    41.5367     8.9445  -161.7001     0.0409     0.0130    10.0000     5.0000     5.0000    10.0000    12.0000     8.0000     8.0000    12.0000    90.0028    -0.0009     3.2399     0.0000     0.0000     0.0000    14.4503    14.4503     0.0000     0.0000     0.0000   300.000
      2   -75.8747   -38.0314      1.027      7.000   9801.000      1.000    41.5367     8.9445  -161.7001     0.0409     0.0130    10.0000     5.0000     5.0000    10.0000    12.0000     8.0000     8.0000    12.0000    90.0028    -0.0009     3.2471     0.0000     0.0000     0.0000    14.4503    14.4503     0.0000     0.0000     0.0000   300.000
      3   -76.0760   -38.1315      1.021     33.000   9801.000      1.000    41.5367     8.9445  -161.7001     0.0409     0.0130    10.0000     5.0000     5.0000    10.0000    12.0000     8.0000     8.0000    12.0000    90.0028    -0.0009     3.2544     0.0000     0.0000     0.0000    14.4503    14.4503     0.0000     0.0000     0.0000   300.000
      4   -76.2744   -38.2310      1.012    138.000   9801.000      1.000    41.5367     8.9445  -161.7001     0.0409     0.0130    10.0000     5.0000     5.0000    10.0000    12.0000     8.0000     8.0000    12.0000    90.0028    -0.0009     3.2616     0.0000     0.0000     0.0000    14.4503    14.4503     0.0000     0.0000     0.0000   300.000
      5   -76.4749   -38.3311      1.020    285.000   9801.000      1.000    41.5367     8.9445  -161.7001     0.0409     0.0130    10.0000     5.0000     5.0000    10.0000    12.0000     8.0000     8.0000    12.0000    90.0027    -0.0009     3.2689     0.0000     0.0000     0.0000    14.4503    14.4503     0.0000     0.0000     0.0000   300.000
      6   -76.6767   -38.4313      1.042    459.000   9801.000      1.000    41.5367     8.9445  -161.7001     0.0409     0.0130    10.0000     5.0000     5.0000    10.0000    12.0000     8.0000     8.0000    12.0000    90.0027    -0.0009     3.2762     0.0000     0.0000     0.0000    14.4503    14.4503     0.0000     0.0000     0.0000   300.000
      7   -76.8763   -38.5319      1.022    578.000   9801.000      1.000    41.5367     8.9445  -161.7001     0.0409     0.0130    10.0000     5.0000     5.0000    10.0000    12.0000     8.0000     8.0000    12.0000    90.0027    -0.0009     3.2834     0.0000     0.0000     0.0000    14.4503    14.4503     0.0000     0.0000     0.0000   300.000
      8   -77.0745   -38.6316      1.019    599.000   9801.000      1.000    41.5367     8.9445  -161.7001     0.0409     0.0130    10.0000     5.0000     5.0000    10.0000    12.0000     8.0000     8.0000    12.0000    90.0027    -0.0009     3.2905     0.0000     0.0000     0.0000    14.4503    14.4503     0.0000     0.0000     0.0000   300.000
      9   -77.2762   -38.7320      1.023    683.000   9801.000      1.000    41.5367     8.9445  -161.7001     0.0409     0.0130    10.0000     5.0000     5.0000    10.0000    12.0000     8.0000     8.0000    12.0000    90.0027    -0.0009     3.2978     0.0000     0.0000     0.0000    14.4503    14.4503     0.0000     0.0000     0.0000   300.000
     10   -77.4758   -38.8319      1.035    632.000   9801.000      1.000    41.5367     8.9445  -161.7001     0.0409     0.0130    10.0000     5.0000     5.0000    10.0000    12.0000     8.0000     8.0000    12.0000    90.0027    -0.0009     3.3050     0.0000     0.0000     0.0000    14.4503    14.4503     0.0000     0.0000     0.0000   300.000
     11   -77.6776   -38.9312      1.012    609.000   9801.000      1.000    41.5367     8.9445  -161.7001     0.0409     0.0130    10.0000     5.0000     5.0000    10.0000    12.0000     8.0000     8.0000    12.0000    90.0027    -0.0009     3.3122     0.0000     0.0000     0.0000    14.4503    14.4503     0.0000     0.0000     0.0000   300.000
     12   -77.8768   -39.0315      1.021    542.000   9801.000      1.000    41.5367     8.9445  -161.7001     0.0409     0.0130    10.0000     5.0000     5.0000    10.0000    12.0000     8.0000     8.0000    12.0000    90.0027    -0.0009     3.3194     0.0000     0.0000     0.0000    14.4503    14.4503     0.0000     0.0000     0.0000   300.000
     13   -78.0744   -39.1314      1.032    495.000   9801.000      1.000    41.5367     8.9445  -161.7001     0.0409     0.0130    10.0000     5.0000     5.0000    10.0000    12.0000     8.0000     8.0000    12.0000    90.0027    -0.0009     3.3264     0.0000     0.0000     0.0000    14.4503    14.4503     0.0000     0.0000     0.0000   300.000
     14   -78.2803   -39.2310      1.024    470.000   9801.000      1.000    41.5367     8.9445  -161.7001     0.0409     0.0130    10.0000     5.0000     5.0000    10.0000    12.0000     8.0000     8.0000    12.0000    90.0027    -0.0009     3.3338     0.0000     0.0000     0.0000    14.4503    14.4503     0.0000     0.0000     0.0000   300.000
     15   -78.4792   -39.3309      1.048    341.000   9801.000      1.000    41.5367     8.9445  -161.7001     0.0409     0.0130    10.0000     5.0000     5.0000    10.0000    12.0000     8.0000     8.0000    12.0000    90.0026    -0.0009     3.3409     0.0000     0.0000     0.0000    14.4503    14.4503     0.0000     0.0000     0.0000   300.000
     16   -78.6782   -39.4313      1.025    230.000   9801.000      1.000    41.5367     8.9445  -161.7001     0.0409     0.0130    10.0000     5.0000     5.0000    10.0000    12.0000     8.0000     8.0000    12.0000    90.0026    -0.0009     3.3480     0.0000     0.0000     0.0000    14.4503    14.4503     0.0000     0.0000     0.0000   300.000
     17   -78.8762   -39.5318      1.016    107.000   9801.000      1.000    41.5367     8.9445  -161.7001     0.0409     0.0130    10.0000     5.0000     5.0000    10.0000    12.0000     8.0000     8.0000    12.0000    90.0026    -0.0009     3.3551     0.0000     0.0000     0.0000    14.4503    14.4503     0.0000     0.0000     0.0000   300.000
     18   -79.0741   -39.6316      1.015     38.000   9801.000      1.000    41.5367     8.9445  -161.7001     0.0409     0.0130    10.0000     5.0000     5.0000    10.0000    12.0000     8.0000     8.0000    12.0000    90.0026    -0.0009     3.3621     0.0000     0.0000     0.0000    14.4503    14.4503     0.0000     0.0000     0.0000   300.000
     19   -79.2750   -39.7319      1.019     10.000   9801.000      1.000    41.5367     8.9445  -161.7001     0.0409     0.0130    10.0000     5.0000     5.0000    10.0000    12.0000     8.0000     8.0000    12.0000    90.0026    -0.0009     3.3692     0.0000     0.0000     0.0000    14.4503    14.4503     0.0000     0.0000     0.0000   300.000
     20   -79.4754   -39.8317      1.020      4.000   9801.000      1.000    41.5367     8.9445  -161.7001     0.0409     0.0130    10.0000     5.0000     5.0000    10.0000    12.0000     8.0000     8.0000    12.0000    90.0026    -0.0009     3.3764     0.0000     0.0000     0.0000    14.4503    14.4503     0.0000     0.0000     0.0000   300.000
     21   -79.6750   -39.9314      1.001      2.000   9801.000      1.000    41.5367     8.9445  -161.7001     0.0409     0.0130    10.0000     5.0000     5.0000    10.0000    12.0000     8.0000     8.0000    12.0000    90.0026    -0.0009     3.3834     0.0000     0.0000     0.0000    14.4503    14.4503     0.0000     0.0000     0.0000   300.000
# Sum of Counts = 6265
# Center of Mass = -77.518975+/-1.385066
# Full Width Half-Maximum = 1.342807+/-0.645739
# 5:08:48 PM  4/15/2024   scan completed.
