# scan = 1801
# date = 4/15/2024
# time = 2:52:34 PM
# proposal = 33477
# experiment = Commissioning and enabling the 4-circle capability at VERITAS
# experiment_number = 1012
# command = scanrel chi 4 -4 1
# builtin_command = scan chi @(chi)+4 @(chi)+-4 1.000000
# users = Feng Ye, Mike McDowell, Adam Aczel, Bing Li, Wei Tian, Bing Li
# local_contact = Wei Tian, Adam Aczel
# scan_title = ErFeO3, initial peak search [020]
# monochromator = PG002
# analyzer = Pg002
# sense = +-+
# collimation = 40-40-40-80
# samplename = La2Ni7, Al-doped CuFeO2
# sampletype = crystal
# samplemosaic = 30.000000
# latticeconstants = 5.263000,5.582000,7.591000,90.000000,90.000000,90.000000
# ubmatrix = -0.000000,0.179117,-0.000000,-0.000000,0.003291,-0.000000,-0.000000,0.000127,-0.000000
# mode = 0
# plane_normal = -0.000714,0.000226,1.000000
# ubconf = UB15Apr2024_11557PM.ini
# preset_type = normal 
# preset_channel = mcu
# preset_value = 1.000000
# def_x = chi
# def_y = detector
# col_headers = 
#   Pt.        chi       time   detector    monitor        mcu         m2        phi         s1         s2        sgl        sgu   slitb_bt   slitb_lf   slitb_rt   slitb_tp   slita_bt   slita_lf   slita_rt   slita_tp         a1         a2          q          h          k          l         ei         ef          e    coldtip     sample       temp
      1     1.0010      1.052     10.000   9801.000      1.000    41.5367   108.9536   -25.2434   -50.4644     0.0409     0.0130    11.0000     8.0000     8.0000    11.0000    15.0000     8.0000     8.0000    15.0000    90.0028    -0.0008     2.2515     0.0000     0.0000     0.0000    14.4503    14.4503     0.0000     0.0000     0.0000   300.000
      2     0.0000      1.048     10.000   9801.000      1.000    41.5367   108.9536   -25.2434   -50.4644     0.0409     0.0130    11.0000     8.0000     8.0000    11.0000    15.0000     8.0000     8.0000    15.0000    90.0028    -0.0008     2.2515     0.0000     0.0000     0.0000    14.4503    14.4503     0.0000     0.0000     0.0000   300.000
      3    -1.0000      1.045     26.000   9801.000      1.000    41.5367   108.9536   -25.2434   -50.4644     0.0409     0.0130    11.0000     8.0000     8.0000    11.0000    15.0000     8.0000     8.0000    15.0000    90.0028    -0.0008     2.2515     0.0000     0.0000     0.0000    14.4503    14.4503     0.0000     0.0000     0.0000   300.000
      4    -2.0000      1.038    309.000   9801.000      1.000    41.5367   108.9536   -25.2434   -50.4644     0.0409     0.0130    11.0000     8.0000     8.0000    11.0000    15.0000     8.0000     8.0000    15.0000    90.0028    -0.0008     2.2515     0.0000     0.0000     0.0000    14.4503    14.4503     0.0000     0.0000     0.0000   300.000
      5    -3.0000      1.040    558.000   9801.000      1.000    41.5367   108.9536   -25.2434   -50.4644     0.0409     0.0130    11.0000     8.0000     8.0000    11.0000    15.0000     8.0000     8.0000    15.0000    90.0028    -0.0008     2.2515     0.0000     0.0000     0.0000    14.4503    14.4503     0.0000     0.0000     0.0000   300.000
      6    -4.0000      1.047    641.000   9801.000      1.000    41.5367   108.9536   -25.2434   -50.4644     0.0409     0.0130    11.0000     8.0000     8.0000    11.0000    15.0000     8.0000     8.0000    15.0000    90.0028    -0.0008     2.2515     0.0000     0.0000     0.0000    14.4503    14.4503     0.0000     0.0000     0.0000   300.000
      7    -5.0000      1.041    478.000   9801.000      1.000    41.5367   108.9536   -25.2434   -50.4644     0.0409     0.0130    11.0000     8.0000     8.0000    11.0000    15.0000     8.0000     8.0000    15.0000    90.0028    -0.0008     2.2515     0.0000     0.0000     0.0000    14.4503    14.4503     0.0000     0.0000     0.0000   300.000
      8    -6.0000      1.052    182.000   9801.000      1.000    41.5367   108.9536   -25.2434   -50.4644     0.0409     0.0130    11.0000     8.0000     8.0000    11.0000    15.0000     8.0000     8.0000    15.0000    90.0028    -0.0008     2.2515     0.0000     0.0000     0.0000    14.4503    14.4503     0.0000     0.0000     0.0000   300.000
      9    -7.0000      1.053      8.000   9801.000      1.000    41.5367   108.9536   -25.2434   -50.4644     0.0409     0.0130    11.0000     8.0000     8.0000    11.0000    15.0000     8.0000     8.0000    15.0000    90.0028    -0.0008     2.2515     0.0000     0.0000     0.0000    14.4503    14.4503     0.0000     0.0000     0.0000   300.000
# Sum of Counts = 2222
# Center of Mass = -3.784874+/-0.116730
# Full Width Half-Maximum = 2.550398+/-0.099950
# 2:53:23 PM  4/15/2024   scan completed.
