# scan = 480
# date = 4/11/2024
# time = 6:35:46 PM
# proposal = 33477
# experiment = Commissioning and enabling the 4-circle capability at VERITAS
# experiment_number = 1012
# command = scan slita_lf 0 10 1
# builtin_command = scan slita_lf 0 10 1
# users = Feng Ye, Mike McDowell, Adam Aczel, Bing Li, Wei Tian, Bing Li
# local_contact = Wei Tian, Adam Aczel
# scan_title = Co-doped MnWO4-FC, look for [010]
# monochromator = PG002
# analyzer = Pg002
# sense = +-+
# collimation = 40-40-40-80
# samplename = La2Ni7, Al-doped CuFeO2
# sampletype = crystal
# samplemosaic = 30.000000
# latticeconstants = 4.830000,5.750000,5.000000,90.000000,91.300000,90.000000
# ubmatrix = -0.000000,0.173884,-0.000000,-0.000000,0.003195,-0.000000,-0.000000,0.000123,-0.000000
# mode = 0
# plane_normal = -0.000714,0.000226,1.000000
# ubconf = UB11Apr2024_40156PM.ini
# preset_type = normal 
# preset_channel = time
# preset_value = 2.000000
# def_x = slita_lf
# def_y = detector
# col_headers = 
#   Pt.   slita_lf       time   detector    monitor        mcu         m2        chi        phi         s1         s2        sgl        sgu   slitb_bt   slitb_lf   slitb_rt   slitb_tp   slita_bt   slita_rt   slita_tp         a1         a2          q          h          k          l         ei         ef          e
      1     0.0000      2.000    169.000  19289.000      1.808    41.5367   -15.0600  -131.0399   -43.6402   -87.2795     0.0409     0.0130    20.0000    10.0000    10.0000    20.0000    20.0000    10.0000    20.0000    20.7603    -0.0021     3.6449 111443612762455012000000000000000.0000 21221183782759656.0000 -1600611014736663900000000000000.0000    14.4503    14.4503     0.000
      2     1.0000      2.000    302.000  19443.000      1.823    41.5367   -15.0600  -131.0399   -43.6402   -87.2795     0.0409     0.0130    20.0000    10.0000    10.0000    20.0000    20.0000    10.0000    20.0000    20.7603    -0.0021     3.6449 111443612762455012000000000000000.0000 21221183782759656.0000 -1600611014736663900000000000000.0000    14.4503    14.4503     0.000
      3     2.0000      2.000    587.000  19628.000      1.840    41.5367   -15.0600  -131.0399   -43.6402   -87.2795     0.0409     0.0130    20.0000    10.0000    10.0000    20.0000    20.0000    10.0000    20.0000    20.7603    -0.0021     3.6449 111443339274276866000000000000000.0000 21221131704917356.0000 -1600607086757489200000000000000.0000    14.4503    14.4503     0.000
      4     3.0000      2.000    834.000  19410.000      1.820    41.5367   -15.0600  -131.0399   -43.6402   -87.2795     0.0409     0.0130    20.0000    10.0000    10.0000    20.0000    20.0000    10.0000    20.0000    20.7603    -0.0021     3.6449 111443612762455012000000000000000.0000 21221183782759656.0000 -1600611014736663900000000000000.0000    14.4503    14.4503     0.000
      5     4.0000      2.000   1075.000  19141.000      1.795    41.5367   -15.0600  -131.0399   -43.6402   -87.2795     0.0409     0.0130    20.0000    10.0000    10.0000    20.0000    20.0000    10.0000    20.0000    20.7603    -0.0021     3.6449 111443612762455012000000000000000.0000 21221183782759656.0000 -1600611014736663900000000000000.0000    14.4503    14.4503     0.000
      6     5.0000      2.000   1279.000  19286.000      1.808    41.5367   -15.0600  -131.0399   -43.6402   -87.2795     0.0409     0.0130    20.0000    10.0000    10.0000    20.0000    20.0000    10.0000    20.0000    20.7603    -0.0021     3.6449 111443339274276866000000000000000.0000 21221131704917356.0000 -1600607086757489200000000000000.0000    14.4503    14.4503     0.000
      7     6.0000      2.000   1386.000  19349.000      1.814    41.5367   -15.0600  -131.0399   -43.6402   -87.2795     0.0409     0.0130    20.0000    10.0000    10.0000    20.0000    20.0000    10.0000    20.0000    20.7603    -0.0021     3.6449 111443612762455012000000000000000.0000 21221183782759656.0000 -1600611014736663900000000000000.0000    14.4503    14.4503     0.000
      8     7.0000      2.000   1455.000  19310.000      1.810    41.5367   -15.0600  -131.0399   -43.6402   -87.2795     0.0409     0.0130    20.0000    10.0000    10.0000    20.0000    20.0000    10.0000    20.0000    20.7603    -0.0021     3.6449 111443339274276866000000000000000.0000 21221131704917356.0000 -1600607086757489200000000000000.0000    14.4503    14.4503     0.000
      9     8.0000      2.000   1521.000  19108.000      1.791    41.5367   -15.0600  -131.0399   -43.6402   -87.2795     0.0409     0.0130    20.0000    10.0000    10.0000    20.0000    20.0000    10.0000    20.0000    20.7603    -0.0021     3.6449 111443612762455012000000000000000.0000 21221183782759656.0000 -1600611014736663900000000000000.0000    14.4503    14.4503     0.000
     10     9.0000      2.000   1514.000  19304.000      1.810    41.5367   -15.0600  -131.0399   -43.6402   -87.2795     0.0409     0.0130    20.0000    10.0000    10.0000    20.0000    20.0000    10.0000    20.0000    20.7603    -0.0021     3.6449 111443612762455012000000000000000.0000 21221183782759656.0000 -1600611014736663900000000000000.0000    14.4503    14.4503     0.000
     11    10.0000      2.000   1552.000  19047.000      1.786    41.5367   -15.0600  -131.0399   -43.6402   -87.2795     0.0409     0.0130    20.0000    10.0000    10.0000    20.0000    20.0000    10.0000    20.0000    20.7603    -0.0021     3.6449 111443339274276866000000000000000.0000 21221131704917356.0000 -1600607086757489200000000000000.0000    14.4503    14.4503     0.000
# Sum of Counts = 11674
# Center of Mass = 6.380675+/-0.086977
# Full Width Half-Maximum = 5.249188+/-0.067642
# 6:36:44 PM  4/11/2024   scan completed.
