# scan = 160
# date = 4/10/2024
# time = 6:37:03 AM
# proposal = 33477
# experiment = Commissioning and enabling the 4-circle capability at VERITAS
# experiment_number = 1012
# command = scanrel chi 6 -6 1
# builtin_command = scan chi @(chi)+6 @(chi)+-6 1.000000
# users = Feng Ye, Mike McDowell, Adam Aczel, Bing Li, Wei Tian, Bing Li
# local_contact = Wei Tian, Adam Aczel
# scan_title = La2Ni7-FC, (2 0 1), chi
# monochromator = PG002
# analyzer = Pg002
# sense = +-+
# collimation = 40-40-40-80
# samplename = La2Ni7, Al-doped CuFeO2
# sampletype = crystal
# samplemosaic = 30.000000
# latticeconstants = 
# ubmatrix = 
# mode = 0
# plane_normal = 0.000000,0.000000,0.000000
# ubconf = /C/SPICE/User/exp1012/UBConf/UB09Apr2024_32926PM.ini
# preset_type = normal 
# preset_channel = mcu
# preset_value = 10.000000
# def_x = chi
# def_y = detector
# col_headers = 
#   Pt.        chi       time   detector    monitor        mcu         m2        phi         s1         s2        sgl        sgu   slitb_bt   slitb_lf   slitb_rt   slitb_tp   slita_bt   slita_lf   slita_rt   slita_tp         a1         a2          q          h          k          l         ei         ef          e
      1    34.0662     11.076     75.000 106661.000     10.000    41.5367     2.9916   -33.1419   -66.2852     0.0409     0.0130    20.0000    10.0000    10.0000    20.0000    10.0000    10.0000    10.0000    10.0000    20.7604    -0.0012     2.8875     0.0000     0.0000     0.0000    14.4503    14.4503     0.000
      2    33.0658     11.137     41.000 106661.000     10.000    41.5367     2.9916   -33.1420   -66.2852     0.0409     0.0130    20.0000    10.0000    10.0000    20.0000    10.0000    10.0000    10.0000    10.0000    20.7604    -0.0012     2.8875     0.0000     0.0000     0.0000    14.4503    14.4503     0.000
      3    32.0658     11.062     64.000 106661.000     10.000    41.5367     2.9916   -33.1420   -66.2852     0.0409     0.0130    20.0000    10.0000    10.0000    20.0000    10.0000    10.0000    10.0000    10.0000    20.7604    -0.0012     2.8875     0.0000     0.0000     0.0000    14.4503    14.4503     0.000
      4    31.0658     11.044     76.000 106661.000     10.000    41.5367     2.9916   -33.1420   -66.2852     0.0409     0.0130    20.0000    10.0000    10.0000    20.0000    10.0000    10.0000    10.0000    10.0000    20.7604    -0.0012     2.8875     0.0000     0.0000     0.0000    14.4503    14.4503     0.000
      5    30.0658     11.057    503.000 106661.000     10.000    41.5367     2.9916   -33.1420   -66.2852     0.0409     0.0130    20.0000    10.0000    10.0000    20.0000    10.0000    10.0000    10.0000    10.0000    20.7604    -0.0012     2.8875     0.0000     0.0000     0.0000    14.4503    14.4503     0.000
      6    29.0658     11.032  20565.000 106661.000     10.000    41.5367     2.9916   -33.1420   -66.2852     0.0409     0.0130    20.0000    10.0000    10.0000    20.0000    10.0000    10.0000    10.0000    10.0000    20.7604    -0.0012     2.8875     0.0000     0.0000     0.0000    14.4503    14.4503     0.000
      7    28.0658     11.067  52775.000 106661.000     10.000    41.5367     2.9916   -33.1420   -66.2852     0.0409     0.0130    20.0000    10.0000    10.0000    20.0000    10.0000    10.0000    10.0000    10.0000    20.7604    -0.0012     2.8875     0.0000     0.0000     0.0000    14.4503    14.4503     0.000
      8    27.0658     11.021  33697.000 106661.000     10.000    41.5367     2.9916   -33.1420   -66.2852     0.0409     0.0130    20.0000    10.0000    10.0000    20.0000    10.0000    10.0000    10.0000    10.0000    20.7604    -0.0012     2.8875     0.0000     0.0000     0.0000    14.4503    14.4503     0.000
      9    26.0658     11.108   3325.000 106661.000     10.000    41.5367     2.9916   -33.1420   -66.2852     0.0409     0.0130    20.0000    10.0000    10.0000    20.0000    10.0000    10.0000    10.0000    10.0000    20.7604    -0.0012     2.8875     0.0000     0.0000     0.0000    14.4503    14.4503     0.000
     10    25.0658     11.014     57.000 106661.000     10.000    41.5367     2.9916   -33.1420   -66.2852     0.0409     0.0130    20.0000    10.0000    10.0000    20.0000    10.0000    10.0000    10.0000    10.0000    20.7604    -0.0012     2.8875     0.0000     0.0000     0.0000    14.4503    14.4503     0.000
     11    24.0658     11.073     45.000 106661.000     10.000    41.5367     2.9916   -33.1420   -66.2852     0.0409     0.0130    20.0000    10.0000    10.0000    20.0000    10.0000    10.0000    10.0000    10.0000    20.7604    -0.0012     2.8875     0.0000     0.0000     0.0000    14.4503    14.4503     0.000
     12    23.0658     11.009     52.000 106661.000     10.000    41.5367     2.9916   -33.1420   -66.2852     0.0409     0.0130    20.0000    10.0000    10.0000    20.0000    10.0000    10.0000    10.0000    10.0000    20.7604    -0.0012     2.8875     0.0000     0.0000     0.0000    14.4503    14.4503     0.000
     13    22.0658     11.034     58.000 106661.000     10.000    41.5367     2.9916   -33.1420   -66.2852     0.0409     0.0130    20.0000    10.0000    10.0000    20.0000    10.0000    10.0000    10.0000    10.0000    20.7604    -0.0012     2.8875     0.0000     0.0000     0.0000    14.4503    14.4503     0.000
# Sum of Counts = 111333
# Center of Mass = 27.898770+/-0.118273
# Full Width Half-Maximum = 1.658105+/-0.098863
# 6:39:59 AM  4/10/2024   scan completed.
