# scan = 666
# date = 5/29/2023
# time = 2:19:46 AM
# proposal = 9879
# experiment = HB-1A  - Backend upgrade commissioning
# experiment_number = 978
# command = scan h 0.961 1.039 0.003 k 0.961 1.039 0.003 l -0.04
# builtin_command = scan h 0.961 1.039 0.003 k 0.961 1.039 0.003 l -0.04
# users = Feng Ye, John Carruth, Adam Aczel, Songxue Chi, Jaime Fernandez-Baca, Masaaki Matsuda, Tao Hong, Travis Williams, Wei Tian, Michael Cox
# local_contact = Wei Tian, Adam Aczel
# scan_title = La2Ni7, ( 0.999916 0.99988 -0.002084 ), 40'-20'-S-20'-20' colli
# monochromator = PG002
# analyzer = Pg002
# sense = +-+
# collimation = 40-40-40-80
# samplename = Si powdre, Si crystal, FeGa alloy, La2Ni7 crystal, Ba2.8Sr0.2CoSn2O9 crystal
# sampletype = crystal
# samplemosaic = 30.000000
# latticeconstants = 5.084792,5.084792,24.669626,90.000000,90.000000,120.000000
# ubmatrix = -0.007838,-0.010887,0.040486,-0.193443,-0.199303,-0.001943,0.118692,-0.108301,-0.000494
# mode = 0
# plane_normal = 0.013424,0.025807,0.999577
# ubconf = UB27May2023_80143PM.ini
# preset_type = normal 
# preset_channel = mcu
# preset_value = 2.000000
# def_x = h
# def_y = detector
# col_headers = 
#   Pt.          h          k          l       time   detector    monitor        mcu         m2   rad_coll         s1         s2        sgl        sgu   slitb_bt   slitb_lf   slitb_rt   slitb_tp   slita_bt   slita_lf   slita_rt   slita_tp        stl        stu         sz         a1         a2          q         ei         ef          e
      1     0.9610     0.9610    -0.0401      1.973      3.000  14221.000      2.000    41.5367     0.0149    66.2358   -53.4530    -0.7692     1.4795    26.0000     4.0000     7.0000    26.0000    24.0000    10.0000     7.0000    24.0000     0.0014    -0.0024     0.0024    20.7700    41.5465     2.3750    14.4503    14.4438     0.006
      2     0.9640     0.9639    -0.0397      2.008      2.000  14221.000      2.000    41.5367     0.0149    66.1448   -53.6296    -0.7692     1.4795    26.0000     4.0000     7.0000    26.0000    24.0000    10.0000     7.0000    24.0000     0.0014    -0.0024     0.0023    20.7700    41.5465     2.3823    14.4503    14.4438     0.006
      3     0.9670     0.9670    -0.0401      1.999      0.000  14221.000      2.000    41.5367     0.0149    66.0537   -53.8148    -0.7691     1.4795    26.0000     4.0000     7.0000    26.0000    24.0000    10.0000     7.0000    24.0000     0.0014    -0.0024     0.0023    20.7700    41.5465     2.3899    14.4503    14.4438     0.006
      4     0.9700     0.9700    -0.0402      2.018      5.000  14221.000      2.000    41.5367     0.0149    65.9630   -53.9954    -0.7692     1.4795    26.0000     4.0000     7.0000    26.0000    24.0000    10.0000     7.0000    24.0000     0.0014    -0.0024     0.0023    20.7700    41.5465     2.3973    14.4503    14.4438     0.006
      5     0.9731     0.9730    -0.0403      2.016      3.000  14221.000      2.000    41.5367     0.0149    65.8723   -54.1765    -0.7692     1.4795    26.0000     4.0000     7.0000    26.0000    24.0000    10.0000     7.0000    24.0000     0.0014    -0.0024     0.0024    20.7700    41.5465     2.4047    14.4503    14.4438     0.006
      6     0.9760     0.9760    -0.0400      2.023      9.000  14221.000      2.000    41.5367     0.0149    65.7809   -54.3547    -0.7692     1.4795    26.0000     4.0000     7.0000    26.0000    24.0000    10.0000     7.0000    24.0000     0.0014    -0.0024     0.0023    20.7700    41.5465     2.4120    14.4503    14.4438     0.006
      7     0.9790     0.9789    -0.0398      2.002      6.000  14221.000      2.000    41.5367     0.0149    65.6897   -54.5337    -0.7692     1.4795    26.0000     4.0000     7.0000    26.0000    24.0000    10.0000     7.0000    24.0000     0.0014    -0.0024     0.0023    20.7700    41.5465     2.4194    14.4503    14.4438     0.006
      8     0.9820     0.9819    -0.0398      2.010      9.000  14221.000      2.000    41.5367     0.0149    65.5982   -54.7145    -0.7692     1.4795    26.0000     4.0000     7.0000    26.0000    24.0000    10.0000     7.0000    24.0000     0.0014    -0.0024     0.0023    20.7699    41.5465     2.4268    14.4503    14.4438     0.006
      9     0.9850     0.9850    -0.0399      2.013      7.000  14221.000      2.000    41.5367     0.0149    65.5073   -54.8969    -0.7692     1.4795    26.0000     4.0000     7.0000    26.0000    24.0000    10.0000     7.0000    24.0000     0.0014    -0.0024     0.0023    20.7699    41.5465     2.4343    14.4503    14.4438     0.006
     10     0.9880     0.9880    -0.0400      2.029     11.000  14221.000      2.000    41.5367     0.0149    65.4153   -55.0808    -0.7692     1.4795    26.0000     4.0000     7.0000    26.0000    24.0000    10.0000     7.0000    24.0000     0.0014    -0.0024     0.0023    20.7699    41.5465     2.4418    14.4503    14.4437     0.006
     11     0.9910     0.9910    -0.0399      2.014     66.000  14221.000      2.000    41.5367     0.0149    65.3237   -55.2608    -0.7692     1.4795    26.0000     4.0000     7.0000    26.0000    24.0000    10.0000     7.0000    24.0000     0.0014    -0.0024     0.0023    20.7699    41.5465     2.4491    14.4503    14.4438     0.006
     12     0.9941     0.9940    -0.0403      2.018    185.000  14221.000      2.000    41.5367     0.0149    65.2329   -55.4462    -0.7691     1.4795    26.0000     4.0000     7.0000    26.0000    24.0000    10.0000     7.0000    24.0000     0.0014    -0.0024     0.0023    20.7699    41.5465     2.4567    14.4503    14.4438     0.006
     13     0.9971     0.9970    -0.0404      2.005    246.000  14221.000      2.000    41.5367     0.0149    65.1413   -55.6288    -0.7692     1.4795    26.0000     4.0000     7.0000    26.0000    24.0000    10.0000     7.0000    24.0000     0.0014    -0.0024     0.0023    20.7699    41.5465     2.4641    14.4503    14.4438     0.006
     14     1.0000     1.0000    -0.0400      2.002    273.000  14221.000      2.000    41.5367     0.0149    65.0496   -55.8069    -0.7692     1.4795    26.0000     4.0000     7.0000    26.0000    24.0000    10.0000     7.0000    24.0000     0.0014    -0.0024     0.0023    20.7699    41.5465     2.4714    14.4503    14.4438     0.006
     15     1.0030     1.0030    -0.0402      2.012    207.000  14221.000      2.000    41.5367     0.0149    64.9581   -55.9906    -0.7692     1.4795    26.0000     4.0000     7.0000    26.0000    24.0000    10.0000     7.0000    24.0000     0.0014    -0.0024     0.0023    20.7699    41.5465     2.4789    14.4503    14.4438     0.006
     16     1.0060     1.0059    -0.0399      2.003    132.000  14221.000      2.000    41.5367     0.0149    64.8670   -56.1684    -0.7692     1.4795    26.0000     4.0000     7.0000    26.0000    24.0000    10.0000     7.0000    24.0000     0.0014    -0.0024     0.0023    20.7699    41.5465     2.4861    14.4503    14.4438     0.006
     17     1.0090     1.0090    -0.0399      1.999     69.000  14221.000      2.000    41.5367     0.0149    64.7744   -56.3518    -0.7692     1.4795    26.0000     4.0000     7.0000    26.0000    24.0000    10.0000     7.0000    24.0000     0.0014    -0.0024     0.0023    20.7699    41.5465     2.4936    14.4503    14.4438     0.006
     18     1.0120     1.0119    -0.0398      1.989     37.000  14221.000      2.000    41.5367     0.0149    64.6822   -56.5341    -0.7692     1.4795    26.0000     4.0000     7.0000    26.0000    24.0000    10.0000     7.0000    24.0000     0.0014    -0.0024     0.0023    20.7699    41.5465     2.5010    14.4503    14.4438     0.006
     19     1.0150     1.0149    -0.0398      2.020     15.000  14221.000      2.000    41.5367     0.0149    64.5901   -56.7163    -0.7692     1.4795    26.0000     4.0000     7.0000    26.0000    24.0000    10.0000     7.0000    24.0000     0.0014    -0.0024     0.0023    20.7699    41.5465     2.5084    14.4503    14.4438     0.006
     20     1.0180     1.0179    -0.0398      2.007      7.000  14221.000      2.000    41.5367     0.0149    64.4980   -56.8996    -0.7692     1.4795    26.0000     4.0000     7.0000    26.0000    24.0000    10.0000     7.0000    24.0000     0.0014    -0.0024     0.0023    20.7699    41.5465     2.5158    14.4503    14.4438     0.006
     21     1.0211     1.0210    -0.0401      2.021      5.000  14221.000      2.000    41.5367     0.0149    64.4058   -57.0869    -0.7692     1.4795    26.0000     4.0000     7.0000    26.0000    24.0000    10.0000     7.0000    24.0000     0.0014    -0.0024     0.0023    20.7699    41.5465     2.5234    14.4503    14.4438     0.006
     22     1.0241     1.0240    -0.0402      2.002      3.000  14221.000      2.000    41.5367     0.0149    64.3134   -57.2704    -0.7692     1.4795    26.0000     4.0000     7.0000    26.0000    24.0000    10.0000     7.0000    24.0000     0.0014    -0.0024     0.0023    20.7699    41.5465     2.5308    14.4503    14.4438     0.006
     23     1.0271     1.0270    -0.0403      2.010      1.000  14221.000      2.000    41.5367     0.0149    64.2215   -57.4550    -0.7692     1.4795    26.0000     4.0000     7.0000    26.0000    24.0000    10.0000     7.0000    24.0000     0.0014    -0.0024     0.0023    20.7699    41.5465     2.5383    14.4503    14.4437     0.006
     24     1.0300     1.0300    -0.0401      2.020      2.000  14221.000      2.000    41.5367     0.0149    64.1291   -57.6360    -0.7692     1.4795    26.0000     4.0000     7.0000    26.0000    24.0000    10.0000     7.0000    24.0000     0.0014    -0.0024     0.0023    20.7699    41.5465     2.5456    14.4503    14.4437     0.006
     25     1.0330     1.0330    -0.0400      2.006      1.000  14221.000      2.000    41.5367     0.0149    64.0369   -57.8182    -0.7692     1.4795    26.0000     4.0000     7.0000    26.0000    24.0000    10.0000     7.0000    24.0000     0.0014    -0.0024     0.0023    20.7698    41.5465     2.5529    14.4503    14.4437     0.006
     26     1.0360     1.0360    -0.0399      1.992      2.000  14221.000      2.000    41.5367     0.0149    63.9439   -58.0017    -0.7692     1.4795    26.0000     4.0000     7.0000    26.0000    24.0000    10.0000     7.0000    24.0000     0.0014    -0.0024     0.0023    20.7698    41.5465     2.5603    14.4503    14.4437     0.006
     27     1.0390     1.0390    -0.0402      1.981      2.000  14221.000      2.000    41.5367     0.0149    63.8523   -58.1872    -0.7692     1.4795    26.0000     4.0000     7.0000    26.0000    24.0000    10.0000     7.0000    24.0000     0.0014    -0.0024     0.0023    20.7698    41.5465     2.5678    14.4503    14.4438     0.006
# Sum of Counts = 1308
# Center of Mass = 0.999784+/-0.039095
# Full Width Half-Maximum = 0.015437+/-0.015250
# 2:26:08 AM  5/29/2023   scan completed.
