# scan = 590
# date = 5/28/2023
# time = 1:49:08 AM
# proposal = 9879
# experiment = HB-1A  - Backend upgrade commissioning
# experiment_number = 978
# command = th2th 3 -3 0.15
# builtin_command = scan s2 @(s2)+3 @(s2)+-3 0.150000 s1 @(s1)+(3/2) @(s1)+(-3/2) 0.075000
# users = Feng Ye, John Carruth, Adam Aczel, Songxue Chi, Jaime Fernandez-Baca, Masaaki Matsuda, Tao Hong, Travis Williams, Wei Tian, Michael Cox
# local_contact = Wei Tian, Adam Aczel
# scan_title = La2Ni7, ( 0.999934 0.999897 0.997359 ), th2th, 40'-20'-S-20'-20' colli
# monochromator = PG002
# analyzer = Pg002
# sense = +-+
# collimation = 40-40-40-80
# samplename = Si powdre, Si crystal, FeGa alloy, La2Ni7 crystal, Ba2.8Sr0.2CoSn2O9 crystal
# sampletype = crystal
# samplemosaic = 30.000000
# latticeconstants = 5.084792,5.084792,24.669626,90.000000,90.000000,120.000000
# ubmatrix = -0.007838,-0.010887,0.040486,-0.193443,-0.199303,-0.001943,0.118692,-0.108301,-0.000494
# mode = 0
# plane_normal = 0.013424,0.025807,0.999577
# ubconf = UB27May2023_80143PM.ini
# preset_type = normal 
# preset_channel = mcu
# preset_value = 10.000000
# def_x = s2
# def_y = detector
# col_headers = 
#   Pt.         s2         s1       time   detector    monitor        mcu         m2   rad_coll        sgl        sgu   slitb_bt   slitb_lf   slitb_rt   slitb_tp   slita_bt   slita_lf   slita_rt   slita_tp        stl        stu         sz         a1         a2          q          h          k          l         ei         ef          e
      1   -53.1213    60.2875     10.193     12.000  71101.000     10.000    41.5367     0.0149    -0.7692     1.4795    26.0000     4.0000     7.0000    26.0000    24.0000    10.0000     7.0000    24.0000     0.0014    -0.0024     0.0023    20.7705    41.5465     2.3613     0.9505     0.9505     0.9478    14.4503    14.4437     0.006
      2   -53.2679    60.2123     10.225     10.000  71101.000     10.000    41.5367     0.0149    -0.7692     1.4795    26.0000     4.0000     7.0000    26.0000    24.0000    10.0000     7.0000    24.0000     0.0014    -0.0024     0.0024    20.7704    41.5465     2.3674     0.9529     0.9529     0.9506    14.4503    14.4437     0.006
      3   -53.4204    60.1375     10.231     20.000  71101.000     10.000    41.5367     0.0149    -0.7692     1.4795    26.0000     4.0000     7.0000    26.0000    24.0000    10.0000     7.0000    24.0000     0.0014    -0.0024     0.0024    20.7704    41.5465     2.3737     0.9555     0.9554     0.9529    14.4503    14.4437     0.006
      4   -53.5697    60.0619     10.233      8.000  71101.000     10.000    41.5367     0.0149    -0.7692     1.4795    26.0000     4.0000     7.0000    26.0000    24.0000    10.0000     7.0000    24.0000     0.0014    -0.0024     0.0024    20.7704    41.5465     2.3798     0.9579     0.9579     0.9555    14.4503    14.4437     0.006
      5   -53.7193    59.9880     10.232     10.000  71101.000     10.000    41.5367     0.0149    -0.7692     1.4795    26.0000     4.0000     7.0000    26.0000    24.0000    10.0000     7.0000    24.0000     0.0014    -0.0024     0.0024    20.7703    41.5465     2.3860     0.9604     0.9604     0.9578    14.4503    14.4437     0.006
      6   -53.8717    59.9121     10.167     15.000  71101.000     10.000    41.5367     0.0149    -0.7692     1.4795    26.0000     4.0000     7.0000    26.0000    24.0000    10.0000     7.0000    24.0000     0.0014    -0.0024     0.0024    20.7703    41.5465     2.3922     0.9629     0.9629     0.9603    14.4503    14.4437     0.006
      7   -54.0217    59.8379     10.230     11.000  71101.000     10.000    41.5367     0.0149    -0.7692     1.4795    26.0000     4.0000     7.0000    26.0000    24.0000    10.0000     7.0000    24.0000     0.0014    -0.0024     0.0024    20.7703    41.5465     2.3984     0.9654     0.9654     0.9626    14.4503    14.4437     0.006
      8   -54.1743    59.7620     10.273     20.000  71101.000     10.000    41.5367     0.0149    -0.7692     1.4795    26.0000     4.0000     7.0000    26.0000    24.0000    10.0000     7.0000    24.0000     0.0014    -0.0024     0.0023    20.7703    41.5465     2.4047     0.9679     0.9679     0.9651    14.4503    14.4437     0.006
      9   -54.3205    59.6876     10.254     12.000  71101.000     10.000    41.5367     0.0149    -0.7692     1.4795    26.0000     4.0000     7.0000    26.0000    24.0000    10.0000     7.0000    24.0000     0.0014    -0.0024     0.0024    20.7702    41.5465     2.4106     0.9703     0.9703     0.9677    14.4503    14.4437     0.006
     10   -54.4694    59.6121     10.302     23.000  71101.000     10.000    41.5367     0.0149    -0.7692     1.4795    26.0000     4.0000     7.0000    26.0000    24.0000    10.0000     7.0000    24.0000     0.0014    -0.0024     0.0024    20.7702    41.5465     2.4167     0.9728     0.9728     0.9704    14.4503    14.4437     0.006
     11   -54.6187    59.5371     10.229     17.000  71101.000     10.000    41.5367     0.0149    -0.7692     1.4795    26.0000     4.0000     7.0000    26.0000    24.0000    10.0000     7.0000    24.0000     0.0014    -0.0024     0.0024    20.7702    41.5465     2.4229     0.9753     0.9752     0.9729    14.4503    14.4437     0.006
     12   -54.7700    59.4614     10.214     20.000  71101.000     10.000    41.5367     0.0149    -0.7692     1.4795    26.0000     4.0000     7.0000    26.0000    24.0000    10.0000     7.0000    24.0000     0.0014    -0.0024     0.0024    20.7702    41.5465     2.4291     0.9777     0.9777     0.9754    14.4503    14.4438     0.006
     13   -54.9203    59.3878     10.163     14.000  71101.000     10.000    41.5367     0.0149    -0.7692     1.4795    26.0000     4.0000     7.0000    26.0000    24.0000    10.0000     7.0000    24.0000     0.0014    -0.0024     0.0024    20.7702    41.5465     2.4352     0.9802     0.9802     0.9776    14.4503    14.4437     0.006
     14   -55.0708    59.3118     10.231      9.000  71101.000     10.000    41.5367     0.0149    -0.7692     1.4795    26.0000     4.0000     7.0000    26.0000    24.0000    10.0000     7.0000    24.0000     0.0014    -0.0024     0.0024    20.7702    41.5465     2.4414     0.9827     0.9827     0.9802    14.4503    14.4437     0.006
     15   -55.2212    59.2378     10.168      9.000  71101.000     10.000    41.5367     0.0149    -0.7692     1.4795    26.0000     4.0000     7.0000    26.0000    24.0000    10.0000     7.0000    24.0000     0.0014    -0.0024     0.0024    20.7702    41.5465     2.4475     0.9852     0.9851     0.9825    14.4503    14.4437     0.006
     16   -55.3723    59.1617     10.214     10.000  71101.000     10.000    41.5367     0.0149    -0.7692     1.4795    26.0000     4.0000     7.0000    26.0000    24.0000    10.0000     7.0000    24.0000     0.0014    -0.0024     0.0024    20.7702    41.5465     2.4537     0.9877     0.9876     0.9851    14.4503    14.4437     0.006
     17   -55.5249    59.0879     10.176     23.000  71101.000     10.000    41.5367     0.0149    -0.7692     1.4795    26.0000     4.0000     7.0000    26.0000    24.0000    10.0000     7.0000    24.0000     0.0014    -0.0024     0.0024    20.7701    41.5465     2.4599     0.9902     0.9901     0.9871    14.4503    14.4437     0.006
     18   -55.6744    59.0122     10.173     22.000  71101.000     10.000    41.5367     0.0149    -0.7692     1.4795    26.0000     4.0000     7.0000    26.0000    24.0000    10.0000     7.0000    24.0000     0.0014    -0.0025     0.0024    20.7701    41.5465     2.4660     0.9926     0.9926     0.9898    14.4503    14.4437     0.006
     19   -55.8242    58.9377     10.258     24.000  71101.000     10.000    41.5367     0.0149    -0.7692     1.4795    26.0000     4.0000     7.0000    26.0000    24.0000    10.0000     7.0000    24.0000     0.0014    -0.0024     0.0024    20.7701    41.5465     2.4721     0.9951     0.9950     0.9921    14.4503    14.4437     0.006
     20   -55.9727    58.8624     10.262     30.000  71101.000     10.000    41.5367     0.0149    -0.7692     1.4795    26.0000     4.0000     7.0000    26.0000    24.0000    10.0000     7.0000    24.0000     0.0014    -0.0024     0.0024    20.7701    41.5465     2.4781     0.9975     0.9975     0.9948    14.4503    14.4437     0.006
     21   -56.1194    58.7878     10.134     34.000  71101.000     10.000    41.5367     0.0149    -0.7692     1.4795    26.0000     4.0000     7.0000    26.0000    24.0000    10.0000     7.0000    24.0000     0.0014    -0.0024     0.0024    20.7701    41.5465     2.4841     0.9999     0.9999     0.9974    14.4503    14.4437     0.006
     22   -56.2699    58.7123     10.273     46.000  71101.000     10.000    41.5367     0.0149    -0.7692     1.4795    26.0000     4.0000     7.0000    26.0000    24.0000    10.0000     7.0000    24.0000     0.0014    -0.0024     0.0023    20.7701    41.5465     2.4902     1.0024     1.0023     0.9999    14.4503    14.4437     0.006
     23   -56.4198    58.6371     10.198     32.000  71101.000     10.000    41.5367     0.0149    -0.7692     1.4795    26.0000     4.0000     7.0000    26.0000    24.0000    10.0000     7.0000    24.0000     0.0014    -0.0024     0.0023    20.7701    41.5465     2.4963     1.0048     1.0048     1.0024    14.4503    14.4437     0.006
     24   -56.5705    58.5618     10.225     42.000  71101.000     10.000    41.5367     0.0149    -0.7692     1.4795    26.0000     4.0000     7.0000    26.0000    24.0000    10.0000     7.0000    24.0000     0.0014    -0.0024     0.0023    20.7701    41.5465     2.5024     1.0073     1.0072     1.0048    14.4503    14.4437     0.006
     25   -56.7184    58.4873     10.270     24.000  71101.000     10.000    41.5367     0.0149    -0.7692     1.4795    26.0000     4.0000     7.0000    26.0000    24.0000    10.0000     7.0000    24.0000     0.0014    -0.0024     0.0024    20.7701    41.5466     2.5084     1.0097     1.0097     1.0073    14.4503    14.4437     0.006
     26   -56.8691    58.4117     10.215     14.000  71101.000     10.000    41.5367     0.0149    -0.7692     1.4795    26.0000     4.0000     7.0000    26.0000    24.0000    10.0000     7.0000    24.0000     0.0014    -0.0024     0.0024    20.7701    41.5465     2.5145     1.0122     1.0121     1.0098    14.4503    14.4437     0.006
     27   -57.0204    58.3376     10.212     13.000  71101.000     10.000    41.5367     0.0149    -0.7692     1.4795    26.0000     4.0000     7.0000    26.0000    24.0000    10.0000     7.0000    24.0000     0.0014    -0.0024     0.0024    20.7701    41.5465     2.5207     1.0146     1.0146     1.0120    14.4503    14.4437     0.006
     28   -57.1737    58.2619     10.237     11.000  71101.000     10.000    41.5367     0.0149    -0.7692     1.4795    26.0000     4.0000     7.0000    26.0000    24.0000    10.0000     7.0000    24.0000     0.0014    -0.0024     0.0024    20.7701    41.5465     2.5269     1.0171     1.0171     1.0144    14.4503    14.4437     0.006
     29   -57.3241    58.1877     10.217     13.000  71101.000     10.000    41.5367     0.0149    -0.7692     1.4795    26.0000     4.0000     7.0000    26.0000    24.0000    10.0000     7.0000    24.0000     0.0014    -0.0024     0.0024    20.7701    41.5465     2.5330     1.0196     1.0195     1.0166    14.4503    14.4437     0.006
     30   -57.4725    58.1119     10.201     13.000  71101.000     10.000    41.5367     0.0149    -0.7692     1.4795    26.0000     4.0000     7.0000    26.0000    24.0000    10.0000     7.0000    24.0000     0.0014    -0.0025     0.0024    20.7700    41.5465     2.5390     1.0220     1.0219     1.0193    14.4503    14.4437     0.006
     31   -57.6218    58.0377     10.202      7.000  71101.000     10.000    41.5367     0.0149    -0.7692     1.4795    26.0000     4.0000     7.0000    26.0000    24.0000    10.0000     7.0000    24.0000     0.0014    -0.0024     0.0024    20.7701    41.5465     2.5450     1.0244     1.0244     1.0217    14.4503    14.4437     0.006
     32   -57.7723    57.9621     10.201      8.000  71101.000     10.000    41.5367     0.0149    -0.7692     1.4795    26.0000     4.0000     7.0000    26.0000    24.0000    10.0000     7.0000    24.0000     0.0014    -0.0024     0.0024    20.7700    41.5465     2.5511     1.0269     1.0268     1.0242    14.4503    14.4437     0.006
     33   -57.9213    57.8878     10.219     21.000  71101.000     10.000    41.5367     0.0149    -0.7692     1.4795    26.0000     4.0000     7.0000    26.0000    24.0000    10.0000     7.0000    24.0000     0.0014    -0.0024     0.0024    20.7700    41.5465     2.5571     1.0293     1.0292     1.0266    14.4503    14.4437     0.006
     34   -58.0695    57.8126     10.208     10.000  71101.000     10.000    41.5367     0.0149    -0.7692     1.4795    26.0000     4.0000     7.0000    26.0000    24.0000    10.0000     7.0000    24.0000     0.0014    -0.0025     0.0024    20.7700    41.5465     2.5631     1.0317     1.0316     1.0292    14.4503    14.4437     0.006
     35   -58.2220    57.7375     10.184     18.000  71101.000     10.000    41.5367     0.0149    -0.7692     1.4795    26.0000     4.0000     7.0000    26.0000    24.0000    10.0000     7.0000    24.0000     0.0014    -0.0024     0.0024    20.7700    41.5465     2.5692     1.0342     1.0341     1.0314    14.4503    14.4437     0.006
     36   -58.3706    57.6618     10.201     11.000  71101.000     10.000    41.5367     0.0149    -0.7692     1.4795    26.0000     4.0000     7.0000    26.0000    24.0000    10.0000     7.0000    24.0000     0.0014    -0.0024     0.0024    20.7700    41.5465     2.5752     1.0366     1.0365     1.0341    14.4503    14.4437     0.006
     37   -58.5207    57.5873     10.246      7.000  71101.000     10.000    41.5367     0.0149    -0.7692     1.4795    26.0000     4.0000     7.0000    26.0000    24.0000    10.0000     7.0000    24.0000     0.0014    -0.0024     0.0024    20.7700    41.5465     2.5812     1.0390     1.0390     1.0364    14.4503    14.4437     0.006
     38   -58.6703    57.5119     10.230      7.000  71101.000     10.000    41.5367     0.0149    -0.7692     1.4795    26.0000     4.0000     7.0000    26.0000    24.0000    10.0000     7.0000    24.0000     0.0014    -0.0024     0.0024    20.7700    41.5465     2.5872     1.0414     1.0414     1.0389    14.4503    14.4437     0.006
     39   -58.8214    57.4369     10.183     11.000  71101.000     10.000    41.5367     0.0149    -0.7692     1.4795    26.0000     4.0000     7.0000    26.0000    24.0000    10.0000     7.0000    24.0000     0.0014    -0.0024     0.0024    20.7700    41.5465     2.5933     1.0439     1.0438     1.0413    14.4503    14.4437     0.006
     40   -58.9721    57.3621     10.218     15.000  71101.000     10.000    41.5367     0.0149    -0.7692     1.4795    26.0000     4.0000     7.0000    26.0000    24.0000    10.0000     7.0000    24.0000     0.0014    -0.0024     0.0024    20.7700    41.5465     2.5993     1.0463     1.0463     1.0436    14.4503    14.4437     0.006
     41   -59.1222    57.2874     10.188      8.000  71101.000     10.000    41.5367     0.0149    -0.7692     1.4795    26.0000     4.0000     7.0000    26.0000    24.0000    10.0000     7.0000    24.0000     0.0014    -0.0024     0.0023    20.7700    41.5465     2.6054     1.0487     1.0487     1.0460    14.4503    14.4437     0.006
# Sum of Counts = 684
# Center of Mass = -56.038228+/-3.030767
# Full Width Half-Maximum = 3.066603+/-0.881853
# 2:00:49 AM  5/28/2023   scan completed.
