# scan = 704
# date = 5/29/2023
# time = 6:15:08 AM
# proposal = 9879
# experiment = HB-1A  - Backend upgrade commissioning
# experiment_number = 978
# command = scan h -0.0004 k -0.0004 l 3.7 4.3 0.03
# builtin_command = scan h -0.0004 k -0.0004 l 3.7 4.3 0.03
# users = Feng Ye, John Carruth, Adam Aczel, Songxue Chi, Jaime Fernandez-Baca, Masaaki Matsuda, Tao Hong, Travis Williams, Wei Tian, Michael Cox
# local_contact = Wei Tian, Adam Aczel
# scan_title = La2Ni7, ( 0.000242 0.00024 3.999793 ), 40'-20'-S-20'-20' colli
# monochromator = PG002
# analyzer = Pg002
# sense = +-+
# collimation = 40-40-40-80
# samplename = Si powdre, Si crystal, FeGa alloy, La2Ni7 crystal, Ba2.8Sr0.2CoSn2O9 crystal
# sampletype = crystal
# samplemosaic = 30.000000
# latticeconstants = 5.084792,5.084792,24.669626,90.000000,90.000000,120.000000
# ubmatrix = -0.007838,-0.010887,0.040486,-0.193443,-0.199303,-0.001943,0.118692,-0.108301,-0.000494
# mode = 0
# plane_normal = 0.013424,0.025807,0.999577
# ubconf = UB27May2023_80143PM.ini
# preset_type = normal 
# preset_channel = mcu
# preset_value = 2.000000
# def_x = l
# def_y = detector
# col_headers = 
#   Pt.          h          k          l       time   detector    monitor        mcu         m2   rad_coll         s1         s2        sgl        sgu   slitb_bt   slitb_lf   slitb_rt   slitb_tp   slita_bt   slita_lf   slita_rt   slita_tp        stl        stu         sz         a1         a2          q         ei         ef          e
      1    -0.0004    -0.0004     3.7007      2.037      4.000  14221.000      2.000    41.5367     0.0149    -7.6466   -20.5622    -0.7691     1.4795    26.0000     4.0000     7.0000    26.0000    24.0000    10.0000     7.0000    24.0000     0.0014    -0.0025     0.0024    20.7702    41.5465     0.9425    14.4503    14.4437     0.006
      2    -0.0004    -0.0004     3.7294      2.021      4.000  14221.000      2.000    41.5367     0.0149    -7.7293   -20.7239    -0.7692     1.4795    26.0000     4.0000     7.0000    26.0000    24.0000    10.0000     7.0000    24.0000     0.0014    -0.0025     0.0024    20.7702    41.5465     0.9499    14.4503    14.4437     0.006
      3    -0.0004    -0.0004     3.7598      1.996      2.000  14221.000      2.000    41.5367     0.0149    -7.8132   -20.8947    -0.7691     1.4795    26.0000     4.0000     7.0000    26.0000    24.0000    10.0000     7.0000    24.0000     0.0014    -0.0025     0.0024    20.7702    41.5465     0.9576    14.4503    14.4437     0.006
      4    -0.0004    -0.0004     3.7898      1.991      2.000  14221.000      2.000    41.5367     0.0149    -7.8968   -21.0629    -0.7691     1.4795    26.0000     4.0000     7.0000    26.0000    24.0000    10.0000     7.0000    24.0000     0.0014    -0.0025     0.0024    20.7702    41.5465     0.9652    14.4503    14.4437     0.006
      5    -0.0004    -0.0004     3.8202      2.033      3.000  14221.000      2.000    41.5367     0.0149    -7.9799   -21.2339    -0.7691     1.4795    26.0000     4.0000     7.0000    26.0000    24.0000    10.0000     7.0000    24.0000     0.0014    -0.0025     0.0024    20.7702    41.5465     0.9730    14.4503    14.4437     0.006
      6    -0.0004    -0.0004     3.8501      1.996      3.000  14221.000      2.000    41.5367     0.0149    -8.0637   -21.4021    -0.7691     1.4795    26.0000     4.0000     7.0000    26.0000    24.0000    10.0000     7.0000    24.0000     0.0014    -0.0024     0.0024    20.7701    41.5465     0.9806    14.4503    14.4437     0.006
      7    -0.0004    -0.0004     3.8800      1.977      5.000  14221.000      2.000    41.5367     0.0149    -8.1476   -21.5703    -0.7691     1.4795    26.0000     4.0000     7.0000    26.0000    24.0000    10.0000     7.0000    24.0000     0.0014    -0.0024     0.0023    20.7701    41.5466     0.9882    14.4503    14.4437     0.006
      8    -0.0004    -0.0004     3.9097      1.997      6.000  14221.000      2.000    41.5367     0.0149    -8.2309   -21.7373    -0.7692     1.4795    26.0000     4.0000     7.0000    26.0000    24.0000    10.0000     7.0000    24.0000     0.0014    -0.0025     0.0024    20.7701    41.5466     0.9958    14.4503    14.4437     0.006
      9    -0.0004    -0.0004     3.9397      2.015    105.000  14221.000      2.000    41.5367     0.0149    -8.3152   -21.9066    -0.7691     1.4795    26.0000     4.0000     7.0000    26.0000    24.0000    10.0000     7.0000    24.0000     0.0014    -0.0024     0.0024    20.7701    41.5466     1.0034    14.4503    14.4437     0.006
     10    -0.0004    -0.0004     3.9695      2.019   1302.000  14221.000      2.000    41.5367     0.0149    -8.3988   -22.0743    -0.7692     1.4795    26.0000     4.0000     7.0000    26.0000    24.0000    10.0000     7.0000    24.0000     0.0014    -0.0025     0.0024    20.7701    41.5466     1.0110    14.4503    14.4437     0.006
     11    -0.0004    -0.0004     3.9996      2.002   3145.000  14221.000      2.000    41.5367     0.0149    -8.4833   -22.2436    -0.7691     1.4795    26.0000     4.0000     7.0000    26.0000    24.0000    10.0000     7.0000    24.0000     0.0014    -0.0025     0.0024    20.7700    41.5466     1.0187    14.4503    14.4437     0.006
     12    -0.0004    -0.0004     4.0299      1.994   3376.000  14221.000      2.000    41.5367     0.0149    -8.5667   -22.4142    -0.7691     1.4795    26.0000     4.0000     7.0000    26.0000    24.0000    10.0000     7.0000    24.0000     0.0014    -0.0025     0.0024    20.7701    41.5466     1.0264    14.4503    14.4437     0.006
     13    -0.0004    -0.0004     4.0603      2.012   1715.000  14221.000      2.000    41.5367     0.0149    -8.6504   -22.5854    -0.7691     1.4795    26.0000     4.0000     7.0000    26.0000    24.0000    10.0000     7.0000    24.0000     0.0014    -0.0025     0.0023    20.7700    41.5466     1.0341    14.4503    14.4437     0.006
     14    -0.0004    -0.0004     4.0905      2.004    360.000  14221.000      2.000    41.5367     0.0149    -8.7344   -22.7560    -0.7691     1.4795    26.0000     4.0000     7.0000    26.0000    24.0000    10.0000     7.0000    24.0000     0.0014    -0.0025     0.0024    20.7700    41.5466     1.0418    14.4503    14.4437     0.006
     15    -0.0004    -0.0004     4.1207      2.000     28.000  14221.000      2.000    41.5367     0.0149    -8.8184   -22.9260    -0.7691     1.4795    26.0000     4.0000     7.0000    26.0000    24.0000    10.0000     7.0000    24.0000     0.0014    -0.0025     0.0023    20.7700    41.5466     1.0495    14.4503    14.4437     0.006
     16    -0.0004    -0.0004     4.1505      1.970      4.000  14221.000      2.000    41.5367     0.0149    -8.9021   -23.0943    -0.7691     1.4795    26.0000     4.0000     7.0000    26.0000    24.0000    10.0000     7.0000    24.0000     0.0014    -0.0024     0.0024    20.7700    41.5466     1.0571    14.4503    14.4437     0.006
     17    -0.0004    -0.0004     4.1801      2.035      3.000  14221.000      2.000    41.5367     0.0149    -8.9862   -23.2610    -0.7691     1.4795    26.0000     4.0000     7.0000    26.0000    24.0000    10.0000     7.0000    24.0000     0.0014    -0.0025     0.0024    20.7700    41.5466     1.0646    14.4503    14.4437     0.006
     18    -0.0004    -0.0004     4.2096      2.003      0.000  14221.000      2.000    41.5367     0.0149    -9.0695   -23.4279    -0.7691     1.4795    26.0000     4.0000     7.0000    26.0000    24.0000    10.0000     7.0000    24.0000     0.0014    -0.0025     0.0024    20.7700    41.5466     1.0722    14.4503    14.4437     0.006
     19    -0.0004    -0.0004     4.2397      2.013      1.000  14221.000      2.000    41.5367     0.0149    -9.1541   -23.5978    -0.7692     1.4795    26.0000     4.0000     7.0000    26.0000    24.0000    10.0000     7.0000    24.0000     0.0014    -0.0025     0.0024    20.7700    41.5466     1.0798    14.4503    14.4437     0.006
     20    -0.0004    -0.0004     4.2699      2.000      2.000  14221.000      2.000    41.5367     0.0149    -9.2379   -23.7681    -0.7691     1.4795    26.0000     4.0000     7.0000    26.0000    24.0000    10.0000     7.0000    24.0000     0.0014    -0.0025     0.0024    20.7700    41.5466     1.0875    14.4503    14.4437     0.006
     21    -0.0004    -0.0004     4.2997      2.013      4.000  14221.000      2.000    41.5367     0.0149    -9.3232   -23.9364    -0.7691     1.4795    26.0000     4.0000     7.0000    26.0000    24.0000    10.0000     7.0000    24.0000     0.0014    -0.0025     0.0024    20.7700    41.5466     1.0951    14.4503    14.4437     0.006
# Sum of Counts = 10074
# Center of Mass = 4.018942+/-0.056628
# Full Width Half-Maximum = 0.070394+/-0.039128
# 6:21:08 AM  5/29/2023   scan completed.
