# scan = 676
# date = 5/29/2023
# time = 3:24:13 AM
# proposal = 9879
# experiment = HB-1A  - Backend upgrade commissioning
# experiment_number = 978
# command = scan h 0.961 1.039 0.003 k 0.961 1.039 0.003 l 0.06
# builtin_command = scan h 0.961 1.039 0.003 k 0.961 1.039 0.003 l 0.06
# users = Feng Ye, John Carruth, Adam Aczel, Songxue Chi, Jaime Fernandez-Baca, Masaaki Matsuda, Tao Hong, Travis Williams, Wei Tian, Michael Cox
# local_contact = Wei Tian, Adam Aczel
# scan_title = La2Ni7, ( 0.999916 0.99988 -0.002084 ), 40'-20'-S-20'-20' colli
# monochromator = PG002
# analyzer = Pg002
# sense = +-+
# collimation = 40-40-40-80
# samplename = Si powdre, Si crystal, FeGa alloy, La2Ni7 crystal, Ba2.8Sr0.2CoSn2O9 crystal
# sampletype = crystal
# samplemosaic = 30.000000
# latticeconstants = 5.084792,5.084792,24.669626,90.000000,90.000000,120.000000
# ubmatrix = -0.007838,-0.010887,0.040486,-0.193443,-0.199303,-0.001943,0.118692,-0.108301,-0.000494
# mode = 0
# plane_normal = 0.013424,0.025807,0.999577
# ubconf = UB27May2023_80143PM.ini
# preset_type = normal 
# preset_channel = mcu
# preset_value = 2.000000
# def_x = h
# def_y = detector
# col_headers = 
#   Pt.          h          k          l       time   detector    monitor        mcu         m2   rad_coll         s1         s2        sgl        sgu   slitb_bt   slitb_lf   slitb_rt   slitb_tp   slita_bt   slita_lf   slita_rt   slita_tp        stl        stu         sz         a1         a2          q         ei         ef          e
      1     0.9610     0.9610     0.0599      2.005      2.000  14221.000      2.000    41.5367     0.0149    65.6209   -53.4543    -0.7692     1.4795    26.0000     4.0000     7.0000    26.0000    24.0000    10.0000     7.0000    24.0000     0.0014    -0.0024     0.0023    20.7701    41.5465     2.3751    14.4503    14.4438     0.006
      2     0.9640     0.9639     0.0602      2.010      1.000  14221.000      2.000    41.5367     0.0149    65.5319   -53.6309    -0.7692     1.4795    26.0000     4.0000     7.0000    26.0000    24.0000    10.0000     7.0000    24.0000     0.0014    -0.0024     0.0023    20.7701    41.5465     2.3823    14.4503    14.4438     0.006
      3     0.9670     0.9670     0.0599      1.989      1.000  14221.000      2.000    41.5367     0.0149    65.4424   -53.8156    -0.7692     1.4795    26.0000     4.0000     7.0000    26.0000    24.0000    10.0000     7.0000    24.0000     0.0014    -0.0024     0.0023    20.7700    41.5465     2.3899    14.4503    14.4438     0.006
      4     0.9700     0.9700     0.0599      2.021      8.000  14221.000      2.000    41.5367     0.0149    65.3536   -53.9956    -0.7692     1.4795    26.0000     4.0000     7.0000    26.0000    24.0000    10.0000     7.0000    24.0000     0.0014    -0.0024     0.0023    20.7700    41.5465     2.3973    14.4503    14.4438     0.006
      5     0.9730     0.9730     0.0598      1.982      8.000  14221.000      2.000    41.5367     0.0149    65.2648   -54.1768    -0.7692     1.4795    26.0000     4.0000     7.0000    26.0000    24.0000    10.0000     7.0000    24.0000     0.0014    -0.0024     0.0023    20.7700    41.5465     2.4048    14.4503    14.4438     0.006
      6     0.9760     0.9760     0.0600      2.038      8.000  14221.000      2.000    41.5367     0.0149    65.1756   -54.3558    -0.7692     1.4795    26.0000     4.0000     7.0000    26.0000    24.0000    10.0000     7.0000    24.0000     0.0014    -0.0024     0.0023    20.7700    41.5465     2.4121    14.4503    14.4438     0.006
      7     0.9790     0.9789     0.0602      2.000      8.000  14221.000      2.000    41.5367     0.0149    65.0864   -54.5340    -0.7692     1.4795    26.0000     4.0000     7.0000    26.0000    24.0000    10.0000     7.0000    24.0000     0.0014    -0.0024     0.0023    20.7700    41.5465     2.4194    14.4503    14.4438     0.006
      8     0.9820     0.9819     0.0601      2.015      5.000  14221.000      2.000    41.5367     0.0149    64.9969   -54.7158    -0.7692     1.4795    26.0000     4.0000     7.0000    26.0000    24.0000    10.0000     7.0000    24.0000     0.0014    -0.0024     0.0023    20.7700    41.5465     2.4268    14.4503    14.4438     0.006
      9     0.9850     0.9849     0.0601      1.997      6.000  14221.000      2.000    41.5367     0.0149    64.9078   -54.8970    -0.7692     1.4795    26.0000     4.0000     7.0000    26.0000    24.0000    10.0000     7.0000    24.0000     0.0014    -0.0024     0.0023    20.7700    41.5465     2.4343    14.4503    14.4438     0.006
     10     0.9880     0.9880     0.0599      1.999     17.000  14221.000      2.000    41.5367     0.0149    64.8181   -55.0814    -0.7692     1.4795    26.0000     4.0000     7.0000    26.0000    24.0000    10.0000     7.0000    24.0000     0.0014    -0.0024     0.0023    20.7699    41.5465     2.4418    14.4503    14.4438     0.006
     11     0.9910     0.9910     0.0600      2.019     34.000  14221.000      2.000    41.5367     0.0149    64.7282   -55.2616    -0.7692     1.4795    26.0000     4.0000     7.0000    26.0000    24.0000    10.0000     7.0000    24.0000     0.0014    -0.0024     0.0023    20.7699    41.5465     2.4492    14.4503    14.4438     0.006
     12     0.9941     0.9940     0.0598      2.014    100.000  14221.000      2.000    41.5367     0.0149    64.6383   -55.4467    -0.7692     1.4795    26.0000     4.0000     7.0000    26.0000    24.0000    10.0000     7.0000    24.0000     0.0014    -0.0024     0.0023    20.7699    41.5465     2.4567    14.4503    14.4438     0.006
     13     0.9970     0.9970     0.0600      2.004    191.000  14221.000      2.000    41.5367     0.0149    64.5482   -55.6260    -0.7692     1.4795    26.0000     4.0000     7.0000    26.0000    24.0000    10.0000     7.0000    24.0000     0.0014    -0.0024     0.0023    20.7699    41.5465     2.4640    14.4503    14.4438     0.006
     14     1.0001     1.0000     0.0598      1.982    222.000  14221.000      2.000    41.5367     0.0149    64.4583   -55.8108    -0.7692     1.4795    26.0000     4.0000     7.0000    26.0000    24.0000    10.0000     7.0000    24.0000     0.0014    -0.0024     0.0023    20.7699    41.5465     2.4715    14.4503    14.4438     0.006
     15     1.0030     1.0030     0.0599      2.012    184.000  14221.000      2.000    41.5367     0.0149    64.3686   -55.9910    -0.7692     1.4795    26.0000     4.0000     7.0000    26.0000    24.0000    10.0000     7.0000    24.0000     0.0014    -0.0024     0.0023    20.7699    41.5465     2.4789    14.4503    14.4438     0.006
     16     1.0060     1.0059     0.0602      2.015    108.000  14221.000      2.000    41.5367     0.0149    64.2787   -56.1691    -0.7692     1.4795    26.0000     4.0000     7.0000    26.0000    24.0000    10.0000     7.0000    24.0000     0.0014    -0.0024     0.0023    20.7699    41.5465     2.4861    14.4503    14.4438     0.006
     17     1.0090     1.0090     0.0601      2.019     61.000  14221.000      2.000    41.5367     0.0149    64.1889   -56.3528    -0.7692     1.4795    26.0000     4.0000     7.0000    26.0000    24.0000    10.0000     7.0000    24.0000     0.0014    -0.0024     0.0023    20.7699    41.5465     2.4936    14.4503    14.4438     0.006
     18     1.0120     1.0120     0.0601      2.019     29.000  14221.000      2.000    41.5367     0.0149    64.0985   -56.5353    -0.7692     1.4795    26.0000     4.0000     7.0000    26.0000    24.0000    10.0000     7.0000    24.0000     0.0014    -0.0024     0.0023    20.7699    41.5465     2.5010    14.4503    14.4437     0.006
     19     1.0150     1.0149     0.0602      1.996     10.000  14221.000      2.000    41.5367     0.0149    64.0085   -56.7167    -0.7692     1.4795    26.0000     4.0000     7.0000    26.0000    24.0000    10.0000     7.0000    24.0000     0.0014    -0.0024     0.0023    20.7699    41.5465     2.5084    14.4503    14.4437     0.006
     20     1.0180     1.0179     0.0601      1.989      7.000  14221.000      2.000    41.5367     0.0149    63.9183   -56.9003    -0.7692     1.4795    26.0000     4.0000     7.0000    26.0000    24.0000    10.0000     7.0000    24.0000     0.0014    -0.0024     0.0023    20.7699    41.5465     2.5158    14.4503    14.4437     0.006
     21     1.0210     1.0210     0.0597      1.983      4.000  14221.000      2.000    41.5367     0.0149    63.8282   -57.0869    -0.7692     1.4795    26.0000     4.0000     7.0000    26.0000    24.0000    10.0000     7.0000    24.0000     0.0014    -0.0024     0.0023    20.7699    41.5465     2.5234    14.4503    14.4438     0.006
     22     1.0241     1.0240     0.0597      2.005      6.000  14221.000      2.000    41.5367     0.0149    63.7368   -57.2719    -0.7692     1.4795    26.0000     4.0000     7.0000    26.0000    24.0000    10.0000     7.0000    24.0000     0.0014    -0.0024     0.0023    20.7699    41.5465     2.5309    14.4503    14.4438     0.006
     23     1.0271     1.0270     0.0598      2.012      1.000  14221.000      2.000    41.5367     0.0149    63.6459   -57.4552    -0.7691     1.4795    26.0000     4.0000     7.0000    26.0000    24.0000    10.0000     7.0000    24.0000     0.0014    -0.0024     0.0023    20.7699    41.5465     2.5383    14.4503    14.4437     0.006
     24     1.0300     1.0300     0.0599      2.024      1.000  14221.000      2.000    41.5367     0.0149    63.5552   -57.6367    -0.7692     1.4795    26.0000     4.0000     7.0000    26.0000    24.0000    10.0000     7.0000    24.0000     0.0014    -0.0024     0.0023    20.7699    41.5465     2.5456    14.4503    14.4437     0.006
     25     1.0330     1.0330     0.0602      1.994      4.000  14221.000      2.000    41.5367     0.0149    63.4641   -57.8184    -0.7692     1.4795    26.0000     4.0000     7.0000    26.0000    24.0000    10.0000     7.0000    24.0000     0.0014    -0.0024     0.0023    20.7699    41.5465     2.5529    14.4503    14.4438     0.006
     26     1.0360     1.0360     0.0601      2.012      0.000  14221.000      2.000    41.5367     0.0149    63.3736   -58.0020    -0.7692     1.4795    26.0000     4.0000     7.0000    26.0000    24.0000    10.0000     7.0000    24.0000     0.0014    -0.0024     0.0023    20.7699    41.5465     2.5603    14.4503    14.4437     0.006
     27     1.0390     1.0390     0.0599      1.998      2.000  14221.000      2.000    41.5367     0.0149    63.2828   -58.1884    -0.7692     1.4795    26.0000     4.0000     7.0000    26.0000    24.0000    10.0000     7.0000    24.0000     0.0014    -0.0024     0.0023    20.7698    41.5465     2.5678    14.4503    14.4438     0.006
# Sum of Counts = 1028
# Center of Mass = 1.000073+/-0.044112
# Full Width Half-Maximum = 0.016903+/-0.015220
# 3:30:37 AM  5/29/2023   scan completed.
