# scan = 694
# date = 5/29/2023
# time = 5:19:19 AM
# proposal = 9879
# experiment = HB-1A  - Backend upgrade commissioning
# experiment_number = 978
# command = scan h -0.0044 k -0.0044 l 3.7 4.3 0.03
# builtin_command = scan h -0.0044 k -0.0044 l 3.7 4.3 0.03
# users = Feng Ye, John Carruth, Adam Aczel, Songxue Chi, Jaime Fernandez-Baca, Masaaki Matsuda, Tao Hong, Travis Williams, Wei Tian, Michael Cox
# local_contact = Wei Tian, Adam Aczel
# scan_title = La2Ni7, ( 0.000242 0.00024 3.999793 ), 40'-20'-S-20'-20' colli
# monochromator = PG002
# analyzer = Pg002
# sense = +-+
# collimation = 40-40-40-80
# samplename = Si powdre, Si crystal, FeGa alloy, La2Ni7 crystal, Ba2.8Sr0.2CoSn2O9 crystal
# sampletype = crystal
# samplemosaic = 30.000000
# latticeconstants = 5.084792,5.084792,24.669626,90.000000,90.000000,120.000000
# ubmatrix = -0.007838,-0.010887,0.040486,-0.193443,-0.199303,-0.001943,0.118692,-0.108301,-0.000494
# mode = 0
# plane_normal = 0.013424,0.025807,0.999577
# ubconf = UB27May2023_80143PM.ini
# preset_type = normal 
# preset_channel = mcu
# preset_value = 2.000000
# def_x = l
# def_y = detector
# col_headers = 
#   Pt.          h          k          l       time   detector    monitor        mcu         m2   rad_coll         s1         s2        sgl        sgu   slitb_bt   slitb_lf   slitb_rt   slitb_tp   slita_bt   slita_lf   slita_rt   slita_tp        stl        stu         sz         a1         a2          q         ei         ef          e
      1    -0.0044    -0.0044     3.7004      2.010      2.000  14221.000      2.000    41.5367     0.0149    -8.2477   -20.5620    -0.7692     1.4795    26.0000     4.0000     7.0000    26.0000    24.0000    10.0000     7.0000    24.0000     0.0014    -0.0025     0.0023    20.7703    41.5465     0.9425    14.4503    14.4437     0.006
      2    -0.0044    -0.0044     3.7294      1.977      3.000  14221.000      2.000    41.5367     0.0149    -8.3267   -20.7252    -0.7692     1.4795    26.0000     4.0000     7.0000    26.0000    24.0000    10.0000     7.0000    24.0000     0.0014    -0.0024     0.0023    20.7702    41.5465     0.9499    14.4503    14.4437     0.006
      3    -0.0044    -0.0044     3.7598      2.000      1.000  14221.000      2.000    41.5367     0.0149    -8.4055   -20.8956    -0.7692     1.4795    26.0000     4.0000     7.0000    26.0000    24.0000    10.0000     7.0000    24.0000     0.0014    -0.0024     0.0024    20.7702    41.5465     0.9576    14.4503    14.4437     0.006
      4    -0.0044    -0.0044     3.7898      1.997      3.000  14221.000      2.000    41.5367     0.0149    -8.4843   -21.0647    -0.7692     1.4795    26.0000     4.0000     7.0000    26.0000    24.0000    10.0000     7.0000    24.0000     0.0014    -0.0024     0.0024    20.7702    41.5465     0.9653    14.4503    14.4437     0.006
      5    -0.0044    -0.0044     3.8201      2.020      2.000  14221.000      2.000    41.5367     0.0149    -8.5635   -21.2351    -0.7692     1.4795    26.0000     4.0000     7.0000    26.0000    24.0000    10.0000     7.0000    24.0000     0.0014    -0.0025     0.0024    20.7702    41.5465     0.9730    14.4503    14.4437     0.006
      6    -0.0044    -0.0044     3.8502      2.001      3.000  14221.000      2.000    41.5367     0.0149    -8.6427   -21.4044    -0.7692     1.4795    26.0000     4.0000     7.0000    26.0000    24.0000    10.0000     7.0000    24.0000     0.0014    -0.0024     0.0024    20.7702    41.5465     0.9807    14.4503    14.4437     0.006
      7    -0.0044    -0.0044     3.8802      1.978      3.000  14221.000      2.000    41.5367     0.0149    -8.7212   -21.5727    -0.7692     1.4795    26.0000     4.0000     7.0000    26.0000    24.0000    10.0000     7.0000    24.0000     0.0014    -0.0024     0.0023    20.7701    41.5465     0.9883    14.4503    14.4437     0.006
      8    -0.0044    -0.0044     3.9095      1.985      6.000  14221.000      2.000    41.5367     0.0149    -8.8006   -21.7376    -0.7692     1.4795    26.0000     4.0000     7.0000    26.0000    24.0000    10.0000     7.0000    24.0000     0.0014    -0.0025     0.0024    20.7701    41.5466     0.9958    14.4503    14.4437     0.006
      9    -0.0044    -0.0044     3.9397      2.013      5.000  14221.000      2.000    41.5367     0.0149    -8.8800   -21.9079    -0.7692     1.4795    26.0000     4.0000     7.0000    26.0000    24.0000    10.0000     7.0000    24.0000     0.0014    -0.0025     0.0024    20.7701    41.5466     1.0035    14.4503    14.4437     0.006
     10    -0.0044    -0.0044     3.9695      2.028      3.000  14221.000      2.000    41.5367     0.0149    -8.9595   -22.0752    -0.7692     1.4795    26.0000     4.0000     7.0000    26.0000    24.0000    10.0000     7.0000    24.0000     0.0014    -0.0024     0.0024    20.7701    41.5466     1.0111    14.4503    14.4437     0.006
     11    -0.0044    -0.0044     3.9996      2.015      7.000  14221.000      2.000    41.5367     0.0149    -9.0390   -22.2450    -0.7692     1.4795    26.0000     4.0000     7.0000    26.0000    24.0000    10.0000     7.0000    24.0000     0.0014    -0.0024     0.0024    20.7701    41.5466     1.0187    14.4503    14.4437     0.006
     12    -0.0044    -0.0044     4.0300      1.991      5.000  14221.000      2.000    41.5367     0.0149    -9.1187   -22.4163    -0.7692     1.4795    26.0000     4.0000     7.0000    26.0000    24.0000    10.0000     7.0000    24.0000     0.0014    -0.0024     0.0024    20.7701    41.5466     1.0265    14.4503    14.4437     0.006
     13    -0.0044    -0.0044     4.0602      1.998      3.000  14221.000      2.000    41.5367     0.0149    -9.1984   -22.5862    -0.7692     1.4795    26.0000     4.0000     7.0000    26.0000    24.0000    10.0000     7.0000    24.0000     0.0014    -0.0024     0.0024    20.7701    41.5466     1.0342    14.4503    14.4437     0.006
     14    -0.0044    -0.0044     4.0905      2.022      0.000  14221.000      2.000    41.5367     0.0149    -9.2786   -22.7569    -0.7692     1.4795    26.0000     4.0000     7.0000    26.0000    24.0000    10.0000     7.0000    24.0000     0.0014    -0.0025     0.0024    20.7701    41.5466     1.0419    14.4503    14.4437     0.006
     15    -0.0044    -0.0044     4.1206      2.016      6.000  14221.000      2.000    41.5367     0.0149    -9.3585   -22.9271    -0.7692     1.4795    26.0000     4.0000     7.0000    26.0000    24.0000    10.0000     7.0000    24.0000     0.0014    -0.0024     0.0024    20.7700    41.5466     1.0496    14.4503    14.4437     0.006
     16    -0.0044    -0.0044     4.1506      1.996      5.000  14221.000      2.000    41.5367     0.0149    -9.4392   -23.0962    -0.7692     1.4795    26.0000     4.0000     7.0000    26.0000    24.0000    10.0000     7.0000    24.0000     0.0014    -0.0024     0.0024    20.7700    41.5466     1.0572    14.4503    14.4437     0.006
     17    -0.0044    -0.0044     4.1800      2.009      2.000  14221.000      2.000    41.5367     0.0149    -9.5189   -23.2619    -0.7692     1.4795    26.0000     4.0000     7.0000    26.0000    24.0000    10.0000     7.0000    24.0000     0.0014    -0.0025     0.0024    20.7700    41.5466     1.0647    14.4503    14.4437     0.006
     18    -0.0044    -0.0044     4.2096      1.994      0.000  14221.000      2.000    41.5367     0.0149    -9.5993   -23.4292    -0.7692     1.4795    26.0000     4.0000     7.0000    26.0000    24.0000    10.0000     7.0000    24.0000     0.0014    -0.0024     0.0024    20.7700    41.5466     1.0722    14.4503    14.4437     0.006
     19    -0.0044    -0.0044     4.2397      2.001      0.000  14221.000      2.000    41.5367     0.0149    -9.6796   -23.5990    -0.7692     1.4795    26.0000     4.0000     7.0000    26.0000    24.0000    10.0000     7.0000    24.0000     0.0014    -0.0024     0.0024    20.7700    41.5466     1.0799    14.4503    14.4437     0.006
     20    -0.0044    -0.0044     4.2700      1.994      3.000  14221.000      2.000    41.5367     0.0149    -9.7598   -23.7696    -0.7692     1.4795    26.0000     4.0000     7.0000    26.0000    24.0000    10.0000     7.0000    24.0000     0.0014    -0.0025     0.0024    20.7700    41.5466     1.0876    14.4503    14.4437     0.006
     21    -0.0044    -0.0044     4.2998      2.025      2.000  14221.000      2.000    41.5367     0.0149    -9.8404   -23.9384    -0.7692     1.4795    26.0000     4.0000     7.0000    26.0000    24.0000    10.0000     7.0000    24.0000     0.0014    -0.0024     0.0024    20.7700    41.5466     1.0952    14.4503    14.4437     0.006
# Sum of Counts = 64
# Center of Mass = 3.987306+/-0.705123
# Full Width Half-Maximum = 0.306558+/-0.312249
# 5:24:23 AM  5/29/2023   scan completed.
