# scan = 596
# date = 5/28/2023
# time = 2:46:04 AM
# proposal = 9879
# experiment = HB-1A  - Backend upgrade commissioning
# experiment_number = 978
# command = th2th 3 -3 0.15
# builtin_command = scan s2 @(s2)+3 @(s2)+-3 0.150000 s1 @(s1)+(3/2) @(s1)+(-3/2) 0.075000
# users = Feng Ye, John Carruth, Adam Aczel, Songxue Chi, Jaime Fernandez-Baca, Masaaki Matsuda, Tao Hong, Travis Williams, Wei Tian, Michael Cox
# local_contact = Wei Tian, Adam Aczel
# scan_title = La2Ni7, ( 1.000006 0.999968 3.997052 ), th2th, 40'-20'-S-20'-20' colli
# monochromator = PG002
# analyzer = Pg002
# sense = +-+
# collimation = 40-40-40-80
# samplename = Si powdre, Si crystal, FeGa alloy, La2Ni7 crystal, Ba2.8Sr0.2CoSn2O9 crystal
# sampletype = crystal
# samplemosaic = 30.000000
# latticeconstants = 5.084792,5.084792,24.669626,90.000000,90.000000,120.000000
# ubmatrix = -0.007838,-0.010887,0.040486,-0.193443,-0.199303,-0.001943,0.118692,-0.108301,-0.000494
# mode = 0
# plane_normal = 0.013424,0.025807,0.999577
# ubconf = UB27May2023_80143PM.ini
# preset_type = normal 
# preset_channel = mcu
# preset_value = 10.000000
# def_x = s2
# def_y = detector
# col_headers = 
#   Pt.         s2         s1       time   detector    monitor        mcu         m2   rad_coll        sgl        sgu   slitb_bt   slitb_lf   slitb_rt   slitb_tp   slita_bt   slita_lf   slita_rt   slita_tp        stl        stu         sz         a1         a2          q          h          k          l         ei         ef          e
      1   -57.8121    41.4235     10.212     12.000  71101.000     10.000    41.5367     0.0149    -0.7692     1.4795    26.0000     4.0000     7.0000    26.0000    24.0000    10.0000     7.0000    24.0000     0.0014    -0.0024     0.0024    20.7702    41.5465     2.5527     0.9551     0.9550     3.8173    14.4503    14.4437     0.006
      2   -57.9600    41.3488     10.211      5.000  71101.000     10.000    41.5367     0.0149    -0.7692     1.4795    26.0000     4.0000     7.0000    26.0000    24.0000    10.0000     7.0000    24.0000     0.0014    -0.0024     0.0024    20.7702    41.5465     2.5586     0.9573     0.9573     3.8263    14.4503    14.4437     0.006
      3   -58.1116    41.2739     10.194     13.000  71101.000     10.000    41.5367     0.0149    -0.7692     1.4795    26.0000     4.0000     7.0000    26.0000    24.0000    10.0000     7.0000    24.0000     0.0014    -0.0024     0.0024    20.7701    41.5465     2.5647     0.9596     0.9595     3.8353    14.4503    14.4437     0.006
      4   -58.2604    41.1988     10.213     14.000  71101.000     10.000    41.5367     0.0149    -0.7692     1.4795    26.0000     4.0000     7.0000    26.0000    24.0000    10.0000     7.0000    24.0000     0.0014    -0.0024     0.0024    20.7701    41.5465     2.5707     0.9618     0.9618     3.8444    14.4503    14.4437     0.006
      5   -58.4114    41.1237     10.280     14.000  71101.000     10.000    41.5367     0.0149    -0.7692     1.4795    26.0000     4.0000     7.0000    26.0000    24.0000    10.0000     7.0000    24.0000     0.0014    -0.0024     0.0024    20.7701    41.5465     2.5768     0.9641     0.9641     3.8535    14.4503    14.4437     0.006
      6   -58.5599    41.0490     10.146      7.000  71101.000     10.000    41.5367     0.0149    -0.7692     1.4795    26.0000     4.0000     7.0000    26.0000    24.0000    10.0000     7.0000    24.0000     0.0014    -0.0024     0.0024    20.7701    41.5465     2.5828     0.9663     0.9663     3.8625    14.4503    14.4437     0.006
      7   -58.7109    40.9742     10.225     14.000  71101.000     10.000    41.5367     0.0149    -0.7692     1.4795    26.0000     4.0000     7.0000    26.0000    24.0000    10.0000     7.0000    24.0000     0.0014    -0.0024     0.0024    20.7701    41.5466     2.5889     0.9686     0.9686     3.8714    14.4503    14.4437     0.006
      8   -58.8626    40.8991     10.184     10.000  71101.000     10.000    41.5367     0.0149    -0.7692     1.4795    26.0000     4.0000     7.0000    26.0000    24.0000    10.0000     7.0000    24.0000     0.0014    -0.0024     0.0024    20.7701    41.5465     2.5949     0.9709     0.9709     3.8804    14.4503    14.4437     0.006
      9   -59.0132    40.8242     10.126     18.000  71101.000     10.000    41.5367     0.0149    -0.7692     1.4795    26.0000     4.0000     7.0000    26.0000    24.0000    10.0000     7.0000    24.0000     0.0014    -0.0024     0.0024    20.7701    41.5465     2.6010     0.9732     0.9731     3.8894    14.4503    14.4437     0.006
     10   -59.1620    40.7488     10.204     18.000  71101.000     10.000    41.5367     0.0149    -0.7692     1.4795    26.0000     4.0000     7.0000    26.0000    24.0000    10.0000     7.0000    24.0000     0.0014    -0.0024     0.0024    20.7700    41.5465     2.6070     0.9754     0.9753     3.8985    14.4503    14.4437     0.006
     11   -59.3107    40.6741     10.166      9.000  71101.000     10.000    41.5367     0.0149    -0.7692     1.4795    26.0000     4.0000     7.0000    26.0000    24.0000    10.0000     7.0000    24.0000     0.0014    -0.0024     0.0024    20.7700    41.5465     2.6129     0.9776     0.9776     3.9074    14.4503    14.4437     0.006
     12   -59.4595    40.5985     10.259     16.000  71101.000     10.000    41.5367     0.0149    -0.7692     1.4795    26.0000     4.0000     7.0000    26.0000    24.0000    10.0000     7.0000    24.0000     0.0014    -0.0024     0.0024    20.7700    41.5465     2.6189     0.9798     0.9798     3.9166    14.4503    14.4437     0.006
     13   -59.6094    40.5235     10.220      7.000  71101.000     10.000    41.5367     0.0149    -0.7692     1.4795    26.0000     4.0000     7.0000    26.0000    24.0000    10.0000     7.0000    24.0000     0.0014    -0.0024     0.0024    20.7700    41.5465     2.6249     0.9821     0.9820     3.9255    14.4503    14.4437     0.006
     14   -59.7595    40.4480     10.232     11.000  71101.000     10.000    41.5367     0.0149    -0.7692     1.4795    26.0000     4.0000     7.0000    26.0000    24.0000    10.0000     7.0000    24.0000     0.0014    -0.0024     0.0024    20.7700    41.5465     2.6309     0.9843     0.9843     3.9346    14.4503    14.4437     0.006
     15   -59.9109    40.3740     10.291     18.000  71101.000     10.000    41.5367     0.0149    -0.7692     1.4795    26.0000     4.0000     7.0000    26.0000    24.0000    10.0000     7.0000    24.0000     0.0014    -0.0024     0.0024    20.7700    41.5465     2.6369     0.9866     0.9865     3.9434    14.4503    14.4437     0.006
     16   -60.0600    40.2986     10.190     22.000  71101.000     10.000    41.5367     0.0149    -0.7692     1.4795    26.0000     4.0000     7.0000    26.0000    24.0000    10.0000     7.0000    24.0000     0.0014    -0.0024     0.0024    20.7700    41.5465     2.6429     0.9888     0.9888     3.9524    14.4503    14.4437     0.006
     17   -60.2096    40.2239     10.245     57.000  71101.000     10.000    41.5367     0.0149    -0.7692     1.4795    26.0000     4.0000     7.0000    26.0000    24.0000    10.0000     7.0000    24.0000     0.0014    -0.0024     0.0024    20.7700    41.5465     2.6488     0.9910     0.9910     3.9613    14.4503    14.4437     0.006
     18   -60.3629    40.1488     10.226    222.000  71101.000     10.000    41.5367     0.0149    -0.7692     1.4795    26.0000     4.0000     7.0000    26.0000    24.0000    10.0000     7.0000    24.0000     0.0014    -0.0024     0.0024    20.7700    41.5465     2.6549     0.9933     0.9933     3.9702    14.4503    14.4437     0.006
     19   -60.5135    40.0740     10.262    490.000  71101.000     10.000    41.5367     0.0149    -0.7692     1.4795    26.0000     4.0000     7.0000    26.0000    24.0000    10.0000     7.0000    24.0000     0.0014    -0.0024     0.0024    20.7700    41.5465     2.6609     0.9956     0.9955     3.9791    14.4503    14.4437     0.006
     20   -60.6628    39.9989     10.107    631.000  71101.000     10.000    41.5367     0.0149    -0.7692     1.4795    26.0000     4.0000     7.0000    26.0000    24.0000    10.0000     7.0000    24.0000     0.0014    -0.0024     0.0024    20.7700    41.5465     2.6669     0.9978     0.9978     3.9881    14.4503    14.4437     0.006
     21   -60.8119    39.9242     10.233    698.000  71101.000     10.000    41.5367     0.0149    -0.7692     1.4795    26.0000     4.0000     7.0000    26.0000    24.0000    10.0000     7.0000    24.0000     0.0014    -0.0024     0.0024    20.7700    41.5465     2.6728     1.0000     1.0000     3.9970    14.4503    14.4437     0.006
     22   -60.9617    39.8490     10.218    546.000  71101.000     10.000    41.5367     0.0149    -0.7692     1.4795    26.0000     4.0000     7.0000    26.0000    24.0000    10.0000     7.0000    24.0000     0.0014    -0.0024     0.0024    20.7700    41.5465     2.6788     1.0022     1.0022     4.0059    14.4503    14.4437     0.006
     23   -61.1118    39.7744     10.271    366.000  71101.000     10.000    41.5367     0.0149    -0.7692     1.4795    26.0000     4.0000     7.0000    26.0000    24.0000    10.0000     7.0000    24.0000     0.0014    -0.0024     0.0024    20.7700    41.5465     2.6847     1.0045     1.0044     4.0148    14.4503    14.4437     0.006
     24   -61.2603    39.6987     10.138    288.000  71101.000     10.000    41.5367     0.0149    -0.7692     1.4795    26.0000     4.0000     7.0000    26.0000    24.0000    10.0000     7.0000    24.0000     0.0014    -0.0024     0.0024    20.7699    41.5465     2.6906     1.0067     1.0066     4.0238    14.4503    14.4437     0.006
     25   -61.4098    39.6238     10.232    209.000  71101.000     10.000    41.5367     0.0149    -0.7692     1.4795    26.0000     4.0000     7.0000    26.0000    24.0000    10.0000     7.0000    24.0000     0.0014    -0.0024     0.0024    20.7699    41.5465     2.6965     1.0089     1.0088     4.0327    14.4503    14.4437     0.006
     26   -61.5612    39.5480     10.171    118.000  71101.000     10.000    41.5367     0.0149    -0.7692     1.4795    26.0000     4.0000     7.0000    26.0000    24.0000    10.0000     7.0000    24.0000     0.0014    -0.0024     0.0024    20.7699    41.5465     2.7025     1.0111     1.0111     4.0417    14.4503    14.4437     0.006
     27   -61.7132    39.4739     10.165     60.000  71101.000     10.000    41.5367     0.0149    -0.7692     1.4795    26.0000     4.0000     7.0000    26.0000    24.0000    10.0000     7.0000    24.0000     0.0014    -0.0024     0.0024    20.7699    41.5465     2.7085     1.0134     1.0133     4.0504    14.4503    14.4437     0.006
     28   -61.8632    39.3984     10.176     46.000  71101.000     10.000    41.5367     0.0149    -0.7692     1.4795    26.0000     4.0000     7.0000    26.0000    24.0000    10.0000     7.0000    24.0000     0.0014    -0.0024     0.0024    20.7699    41.5465     2.7145     1.0156     1.0156     4.0593    14.4503    14.4438     0.006
     29   -62.0144    39.3236     10.181     19.000  71101.000     10.000    41.5367     0.0149    -0.7692     1.4795    26.0000     4.0000     7.0000    26.0000    24.0000    10.0000     7.0000    24.0000     0.0014    -0.0024     0.0024    20.7699    41.5465     2.7205     1.0178     1.0178     4.0681    14.4503    14.4437     0.006
     30   -62.1630    39.2487     10.257      6.000  71101.000     10.000    41.5367     0.0149    -0.7692     1.4795    26.0000     4.0000     7.0000    26.0000    24.0000    10.0000     7.0000    24.0000     0.0014    -0.0024     0.0024    20.7699    41.5465     2.7263     1.0200     1.0200     4.0770    14.4503    14.4438     0.006
     31   -62.3153    39.1740     10.239      8.000  71101.000     10.000    41.5367     0.0149    -0.7692     1.4795    26.0000     4.0000     7.0000    26.0000    24.0000    10.0000     7.0000    24.0000     0.0014    -0.0024     0.0024    20.7699    41.5465     2.7323     1.0223     1.0223     4.0858    14.4503    14.4437     0.006
     32   -62.4638    39.0988     10.214     17.000  71101.000     10.000    41.5367     0.0149    -0.7692     1.4795    26.0000     4.0000     7.0000    26.0000    24.0000    10.0000     7.0000    24.0000     0.0014    -0.0024     0.0024    20.7699    41.5465     2.7382     1.0245     1.0244     4.0947    14.4503    14.4438     0.006
     33   -62.6125    39.0240     10.153     11.000  71101.000     10.000    41.5367     0.0149    -0.7692     1.4795    26.0000     4.0000     7.0000    26.0000    24.0000    10.0000     7.0000    24.0000     0.0014    -0.0024     0.0024    20.7699    41.5465     2.7440     1.0267     1.0266     4.1035    14.4503    14.4438     0.006
     34   -62.7596    38.9489     10.095      9.000  71101.000     10.000    41.5367     0.0149    -0.7692     1.4795    26.0000     4.0000     7.0000    26.0000    24.0000    10.0000     7.0000    24.0000     0.0014    -0.0024     0.0024    20.7699    41.5465     2.7498     1.0288     1.0288     4.1125    14.4503    14.4438     0.006
     35   -62.9091    38.8745     10.169     12.000  71101.000     10.000    41.5367     0.0149    -0.7692     1.4795    26.0000     4.0000     7.0000    26.0000    24.0000    10.0000     7.0000    24.0000     0.0014    -0.0024     0.0024    20.7699    41.5465     2.7557     1.0310     1.0310     4.1212    14.4503    14.4438     0.006
     36   -63.0606    38.7989     10.204     11.000  71101.000     10.000    41.5367     0.0149    -0.7692     1.4795    26.0000     4.0000     7.0000    26.0000    24.0000    10.0000     7.0000    24.0000     0.0014    -0.0024     0.0024    20.7699    41.5465     2.7617     1.0332     1.0332     4.1301    14.4503    14.4438     0.006
     37   -63.2097    38.7239     10.178     11.000  71101.000     10.000    41.5367     0.0149    -0.7692     1.4795    26.0000     4.0000     7.0000    26.0000    24.0000    10.0000     7.0000    24.0000     0.0014    -0.0024     0.0024    20.7699    41.5465     2.7675     1.0354     1.0354     4.1389    14.4503    14.4438     0.006
     38   -63.3597    38.6484     10.201     12.000  71101.000     10.000    41.5367     0.0149    -0.7692     1.4795    26.0000     4.0000     7.0000    26.0000    24.0000    10.0000     7.0000    24.0000     0.0014    -0.0024     0.0024    20.7699    41.5465     2.7734     1.0376     1.0376     4.1478    14.4503    14.4438     0.006
     39   -63.5107    38.5741     10.197      8.000  71101.000     10.000    41.5367     0.0149    -0.7692     1.4795    26.0000     4.0000     7.0000    26.0000    24.0000    10.0000     7.0000    24.0000     0.0014    -0.0024     0.0024    20.7699    41.5465     2.7793     1.0399     1.0398     4.1565    14.4503    14.4438     0.006
     40   -63.6629    38.4982     10.311     15.000  71101.000     10.000    41.5367     0.0149    -0.7692     1.4795    26.0000     4.0000     7.0000    26.0000    24.0000    10.0000     7.0000    24.0000     0.0014    -0.0024     0.0024    20.7699    41.5465     2.7853     1.0421     1.0420     4.1654    14.4503    14.4438     0.006
     41   -63.8129    38.4240     10.204      9.000  71101.000     10.000    41.5367     0.0149    -0.7692     1.4795    26.0000     4.0000     7.0000    26.0000    24.0000    10.0000     7.0000    24.0000     0.0014    -0.0024     0.0024    20.7699    41.5465     2.7912     1.0443     1.0443     4.1740    14.4503    14.4438     0.006
# Sum of Counts = 4087
# Center of Mass = -60.860708+/-1.346366
# Full Width Half-Maximum = 1.362636+/-0.346316
# 2:57:34 AM  5/28/2023   scan completed.
