# scan = 48
# date = 5/24/2023
# time = 5:04:22 PM
# proposal = 9879
# experiment = HB-1A  - Backend upgrade commissioning
# experiment_number = 978
# command = scan slita_bt 0 30 2
# builtin_command = scan slita_bt 0 30 2
# users = Feng Ye, John Carruth, Adam Aczel, Songxue Chi, Jaime Fernandez-Baca, Masaaki Matsuda, Tao Hong, Travis Williams, Wei Tian, Michael Cox
# local_contact = Wei Tian, Adam Aczel
# scan_title = 10.8% Fe-Ga NXS crystal, 40' S-A, 80' A-D collimators in, check (002) and (020) alignment, HB1a ~42 attenuator in
# monochromator = PG002
# analyzer = Pg002
# sense = +-+
# collimation = 40-40-40-80
# samplename = Si powdre, Si crystal, FeGa alloy, La2Ni7 crystal, Ba2.8Sr0.2CoSn2O9 crystal
# sampletype = crystal
# samplemosaic = 30.000000
# latticeconstants = 2.890068,2.890068,2.890068,90.000000,90.000000,90.000000
# ubmatrix = 0.346005,0.001684,0.001510,0.001785,-0.345165,-0.024140,0.001389,0.024147,-0.345166
# mode = 0
# plane_normal = -0.004365,0.069766,0.997554
# ubconf = UB24May2023_50219PM.ini
# preset_type = normal 
# preset_channel = mcu
# preset_value = 1.000000
# def_x = slita_bt
# def_y = detector
# col_headers = 
#   Pt.   slita_bt       time   detector    monitor        mcu         m2   rad_coll         s1         s2        sgl        sgu   slitb_bt   slitb_lf   slitb_rt   slitb_tp   slita_lf   slita_rt   slita_tp        stl        stu         sz         a1         a2          q          h          k          l         ei         ef          e
      1     0.0000      1.100  28979.000   7111.000      1.000    41.5367     0.0149    34.3066  -110.8287     0.2501     4.0006    30.0000    20.0000    20.0000    30.0000    20.0000    20.0000    30.0000     0.0009    -0.0023    -0.0016    20.7708    41.5520     4.3474    -0.0002     1.9997    -0.0000    14.4503    14.4401     0.010
      2     2.0000      1.114  29644.000   7111.000      1.000    41.5367     0.0149    34.3066  -110.8286     0.2501     4.0006    30.0000    20.0000    20.0000    30.0000    20.0000    20.0000    30.0000     0.0009    -0.0023    -0.0016    20.7708    41.5520     4.3474    -0.0002     1.9997    -0.0000    14.4503    14.4401     0.010
      3     4.0000      1.073  28537.000   7111.000      1.000    41.5367     0.0149    34.3066  -110.8287     0.2501     4.0006    30.0000    20.0000    20.0000    30.0000    20.0000    20.0000    30.0000     0.0008    -0.0023    -0.0016    20.7708    41.5520     4.3474    -0.0002     1.9997    -0.0000    14.4503    14.4401     0.010
      4     6.0000      1.104  29954.000   7111.000      1.000    41.5367     0.0149    34.3066  -110.8286     0.2501     4.0006    30.0000    20.0000    20.0000    30.0000    20.0000    20.0000    30.0000     0.0008    -0.0023    -0.0016    20.7708    41.5520     4.3474    -0.0002     1.9997    -0.0000    14.4503    14.4401     0.010
      5     8.0000      1.109  30304.000   7111.000      1.000    41.5367     0.0149    34.3066  -110.8286     0.2501     4.0006    30.0000    20.0000    20.0000    30.0000    20.0000    20.0000    30.0000     0.0008    -0.0023    -0.0016    20.7708    41.5520     4.3474    -0.0002     1.9997    -0.0000    14.4503    14.4401     0.010
      6    10.0000      1.114  30325.000   7111.000      1.000    41.5367     0.0149    34.3066  -110.8287     0.2501     4.0006    30.0000    20.0000    20.0000    30.0000    20.0000    20.0000    30.0000     0.0008    -0.0023    -0.0016    20.7708    41.5520     4.3474    -0.0002     1.9997    -0.0000    14.4503    14.4401     0.010
      7    12.0000      1.108  30574.000   7111.000      1.000    41.5367     0.0149    34.3066  -110.8287     0.2501     4.0006    30.0000    20.0000    20.0000    30.0000    20.0000    20.0000    30.0000     0.0009    -0.0023    -0.0016    20.7708    41.5520     4.3474    -0.0002     1.9997    -0.0000    14.4503    14.4401     0.010
      8    14.0000      1.107  30583.000   7111.000      1.000    41.5367     0.0149    34.3066  -110.8286     0.2501     4.0006    30.0000    20.0000    20.0000    30.0000    20.0000    20.0000    30.0000     0.0008    -0.0023    -0.0016    20.7708    41.5520     4.3474    -0.0002     1.9997    -0.0000    14.4503    14.4401     0.010
      9    16.0000      1.098  30096.000   7111.000      1.000    41.5367     0.0149    34.3066  -110.8286     0.2501     4.0006    30.0000    20.0000    20.0000    30.0000    20.0000    20.0000    30.0000     0.0008    -0.0023    -0.0017    20.7708    41.5520     4.3474    -0.0002     1.9997    -0.0000    14.4503    14.4401     0.010
     10    18.0000      1.111  30944.000   7111.000      1.000    41.5367     0.0149    34.3066  -110.8286     0.2501     4.0006    30.0000    20.0000    20.0000    30.0000    20.0000    20.0000    30.0000     0.0009    -0.0023    -0.0016    20.7708    41.5520     4.3474    -0.0002     1.9997    -0.0000    14.4503    14.4401     0.010
     11    20.0000      1.130  31556.000   7111.000      1.000    41.5367     0.0149    34.3066  -110.8286     0.2501     4.0006    30.0000    20.0000    20.0000    30.0000    20.0000    20.0000    30.0000     0.0008    -0.0023    -0.0017    20.7708    41.5520     4.3474    -0.0002     1.9997    -0.0000    14.4503    14.4401     0.010
     12    22.0000      1.105  31160.000   7111.000      1.000    41.5367     0.0149    34.3066  -110.8287     0.2501     4.0006    30.0000    20.0000    20.0000    30.0000    20.0000    20.0000    30.0000     0.0009    -0.0023    -0.0017    20.7708    41.5520     4.3474    -0.0002     1.9997    -0.0000    14.4503    14.4401     0.010
     13    24.0000      1.089  30935.000   7111.000      1.000    41.5367     0.0149    34.3066  -110.8287     0.2501     4.0006    30.0000    20.0000    20.0000    30.0000    20.0000    20.0000    30.0000     0.0008    -0.0023    -0.0016    20.7708    41.5520     4.3474    -0.0002     1.9997    -0.0000    14.4503    14.4401     0.010
     14    26.0000      1.095  30666.000   7111.000      1.000    41.5367     0.0149    34.3066  -110.8287     0.2501     4.0006    30.0000    20.0000    20.0000    30.0000    20.0000    20.0000    30.0000     0.0008    -0.0023    -0.0016    20.7708    41.5520     4.3474    -0.0002     1.9997    -0.0000    14.4503    14.4401     0.010
     15    28.0000      1.119  31483.000   7111.000      1.000    41.5367     0.0149    34.3066  -110.8286     0.2501     4.0006    30.0000    20.0000    20.0000    30.0000    20.0000    20.0000    30.0000     0.0009    -0.0023    -0.0016    20.7708    41.5520     4.3474    -0.0002     1.9997    -0.0000    14.4503    14.4401     0.010
     16    30.0000      1.120  31418.000   7111.000      1.000    41.5367     0.0149    34.3066  -110.8286     0.2501     4.0006    30.0000    20.0000    20.0000    30.0000    20.0000    20.0000    30.0000     0.0009    -0.0023    -0.0016    20.7708    41.5520     4.3474    -0.0002     1.9997    -0.0000    14.4503    14.4401     0.010
# Sum of Counts = 487158
# Center of Mass = 15.216583+/-0.033527
# Full Width Half-Maximum = 18.384946+/-0.027660
# 5:06:09 PM  5/24/2023   scan completed.
