# scan = 717
# date = 5/29/2023
# time = 7:25:49 AM
# proposal = 9879
# experiment = HB-1A  - Backend upgrade commissioning
# experiment_number = 978
# command = scan h 0.0048 k 0.0048 l 3.7 4.3 0.03
# builtin_command = scan h 0.0048 k 0.0048 l 3.7 4.3 0.03
# users = Feng Ye, John Carruth, Adam Aczel, Songxue Chi, Jaime Fernandez-Baca, Masaaki Matsuda, Tao Hong, Travis Williams, Wei Tian, Michael Cox
# local_contact = Wei Tian, Adam Aczel
# scan_title = La2Ni7, ( 0.000242 0.00024 3.999793 ), 40'-20'-S-20'-20' colli
# monochromator = PG002
# analyzer = Pg002
# sense = +-+
# collimation = 40-40-40-80
# samplename = Si powdre, Si crystal, FeGa alloy, La2Ni7 crystal, Ba2.8Sr0.2CoSn2O9 crystal
# sampletype = crystal
# samplemosaic = 30.000000
# latticeconstants = 5.084792,5.084792,24.669626,90.000000,90.000000,120.000000
# ubmatrix = -0.007838,-0.010887,0.040486,-0.193443,-0.199303,-0.001943,0.118692,-0.108301,-0.000494
# mode = 0
# plane_normal = 0.013424,0.025807,0.999577
# ubconf = UB27May2023_80143PM.ini
# preset_type = normal 
# preset_channel = mcu
# preset_value = 2.000000
# def_x = l
# def_y = detector
# col_headers = 
#   Pt.          h          k          l       time   detector    monitor        mcu         m2   rad_coll         s1         s2        sgl        sgu   slitb_bt   slitb_lf   slitb_rt   slitb_tp   slita_bt   slita_lf   slita_rt   slita_tp        stl        stu         sz         a1         a2          q         ei         ef          e
      1     0.0048     0.0048     3.7006      2.002      2.000  14221.000      2.000    41.5367     0.0149    -6.8658   -20.5637    -0.7691     1.4795    26.0000     4.0000     7.0000    26.0000    24.0000    10.0000     7.0000    24.0000     0.0014    -0.0025     0.0024    20.7702    41.5465     0.9426    14.4503    14.4437     0.006
      2     0.0048     0.0048     3.7294      2.006      2.000  14221.000      2.000    41.5367     0.0149    -6.9551   -20.7256    -0.7691     1.4795    26.0000     4.0000     7.0000    26.0000    24.0000    10.0000     7.0000    24.0000     0.0014    -0.0024     0.0024    20.7702    41.5465     0.9499    14.4503    14.4437     0.006
      3     0.0048     0.0048     3.7598      2.018      2.000  14221.000      2.000    41.5367     0.0149    -7.0451   -20.8960    -0.7691     1.4795    26.0000     4.0000     7.0000    26.0000    24.0000    10.0000     7.0000    24.0000     0.0014    -0.0025     0.0024    20.7702    41.5465     0.9577    14.4503    14.4437     0.006
      4     0.0048     0.0048     3.7899      2.010      2.000  14221.000      2.000    41.5367     0.0149    -7.1341   -21.0654    -0.7691     1.4795    26.0000     4.0000     7.0000    26.0000    24.0000    10.0000     7.0000    24.0000     0.0014    -0.0025     0.0023    20.7702    41.5465     0.9653    14.4503    14.4437     0.006
      5     0.0048     0.0048     3.8202      2.017      3.000  14221.000      2.000    41.5367     0.0149    -7.2245   -21.2355    -0.7691     1.4795    26.0000     4.0000     7.0000    26.0000    24.0000    10.0000     7.0000    24.0000     0.0014    -0.0025     0.0024    20.7701    41.5465     0.9730    14.4503    14.4437     0.006
      6     0.0048     0.0048     3.8501      2.000      3.000  14221.000      2.000    41.5367     0.0149    -7.3137   -21.4040    -0.7691     1.4795    26.0000     4.0000     7.0000    26.0000    24.0000    10.0000     7.0000    24.0000     0.0014    -0.0025     0.0024    20.7701    41.5466     0.9807    14.4503    14.4437     0.006
      7     0.0048     0.0048     3.8801      1.998      4.000  14221.000      2.000    41.5367     0.0149    -7.4038   -21.5725    -0.7691     1.4795    26.0000     4.0000     7.0000    26.0000    24.0000    10.0000     7.0000    24.0000     0.0014    -0.0025     0.0024    20.7701    41.5465     0.9883    14.4503    14.4437     0.006
      8     0.0048     0.0048     3.9096      1.996      1.000  14221.000      2.000    41.5367     0.0149    -7.4930   -21.7385    -0.7691     1.4795    26.0000     4.0000     7.0000    26.0000    24.0000    10.0000     7.0000    24.0000     0.0014    -0.0025     0.0024    20.7701    41.5466     0.9958    14.4503    14.4437     0.006
      9     0.0048     0.0048     3.9396      2.009      1.000  14221.000      2.000    41.5367     0.0149    -7.5825   -21.9074    -0.7691     1.4795    26.0000     4.0000     7.0000    26.0000    24.0000    10.0000     7.0000    24.0000     0.0014    -0.0025     0.0024    20.7701    41.5465     1.0035    14.4503    14.4437     0.006
     10     0.0048     0.0048     3.9695      2.024      2.000  14221.000      2.000    41.5367     0.0149    -7.6713   -22.0758    -0.7691     1.4795    26.0000     4.0000     7.0000    26.0000    24.0000    10.0000     7.0000    24.0000     0.0014    -0.0025     0.0024    20.7701    41.5466     1.0111    14.4503    14.4437     0.006
     11     0.0048     0.0048     3.9996      2.024      2.000  14221.000      2.000    41.5367     0.0149    -7.7604   -22.2453    -0.7691     1.4795    26.0000     4.0000     7.0000    26.0000    24.0000    10.0000     7.0000    24.0000     0.0014    -0.0025     0.0024    20.7701    41.5466     1.0187    14.4503    14.4437     0.006
     12     0.0048     0.0048     4.0299      2.010      3.000  14221.000      2.000    41.5367     0.0149    -7.8498   -22.4160    -0.7691     1.4795    26.0000     4.0000     7.0000    26.0000    24.0000    10.0000     7.0000    24.0000     0.0014    -0.0025     0.0024    20.7700    41.5466     1.0265    14.4503    14.4437     0.006
     13     0.0048     0.0048     4.0602      1.996      2.000  14221.000      2.000    41.5367     0.0149    -7.9390   -22.5865    -0.7691     1.4795    26.0000     4.0000     7.0000    26.0000    24.0000    10.0000     7.0000    24.0000     0.0014    -0.0025     0.0024    20.7700    41.5466     1.0342    14.4503    14.4437     0.006
     14     0.0048     0.0048     4.0905      1.993      3.000  14221.000      2.000    41.5367     0.0149    -8.0283   -22.7575    -0.7691     1.4795    26.0000     4.0000     7.0000    26.0000    24.0000    10.0000     7.0000    24.0000     0.0014    -0.0025     0.0024    20.7700    41.5466     1.0419    14.4503    14.4437     0.006
     15     0.0048     0.0048     4.1200      2.035      0.000  14221.000      2.000    41.5367     0.0149    -8.1170   -22.9240    -0.7691     1.4795    26.0000     4.0000     7.0000    26.0000    24.0000    10.0000     7.0000    24.0000     0.0014    -0.0025     0.0024    20.7700    41.5466     1.0494    14.4503    14.4437     0.006
     16     0.0048     0.0048     4.1505      2.026      2.000  14221.000      2.000    41.5367     0.0149    -8.2061   -23.0958    -0.7691     1.4795    26.0000     4.0000     7.0000    26.0000    24.0000    10.0000     7.0000    24.0000     0.0014    -0.0025     0.0024    20.7700    41.5466     1.0572    14.4503    14.4437     0.006
     17     0.0048     0.0048     4.1802      2.019      4.000  14221.000      2.000    41.5367     0.0149    -8.2953   -23.2634    -0.7691     1.4795    26.0000     4.0000     7.0000    26.0000    24.0000    10.0000     7.0000    24.0000     0.0014    -0.0025     0.0024    20.7700    41.5466     1.0647    14.4503    14.4437     0.006
     18     0.0048     0.0048     4.2095      2.023      3.000  14221.000      2.000    41.5367     0.0149    -8.3845   -23.4287    -0.7691     1.4795    26.0000     4.0000     7.0000    26.0000    24.0000    10.0000     7.0000    24.0000     0.0014    -0.0024     0.0024    20.7700    41.5466     1.0722    14.4503    14.4437     0.006
     19     0.0048     0.0048     4.2395      2.001      1.000  14221.000      2.000    41.5367     0.0149    -8.4733   -23.5982    -0.7691     1.4795    26.0000     4.0000     7.0000    26.0000    24.0000    10.0000     7.0000    24.0000     0.0014    -0.0025     0.0024    20.7700    41.5466     1.0798    14.4503    14.4437     0.006
     20     0.0048     0.0048     4.2699      2.010      4.000  14221.000      2.000    41.5367     0.0149    -8.5626   -23.7695    -0.7691     1.4795    26.0000     4.0000     7.0000    26.0000    24.0000    10.0000     7.0000    24.0000     0.0014    -0.0025     0.0023    20.7700    41.5466     1.0876    14.4503    14.4437     0.006
     21     0.0048     0.0048     4.2998      2.007      4.000  14221.000      2.000    41.5367     0.0149    -8.6512   -23.9382    -0.7691     1.4795    26.0000     4.0000     7.0000    26.0000    24.0000    10.0000     7.0000    24.0000     0.0014    -0.0025     0.0024    20.7700    41.5466     1.0952    14.4503    14.4437     0.006
# Sum of Counts = 50
# Center of Mass = 4.018566+/-0.804160
# Full Width Half-Maximum = 0.379196+/-0.395106
# 7:31:18 AM  5/29/2023   scan completed.
