# scan = 614
# date = 5/28/2023
# time = 5:36:29 AM
# proposal = 9879
# experiment = HB-1A  - Backend upgrade commissioning
# experiment_number = 978
# command = th2th 3 -3 0.15
# builtin_command = scan s2 @(s2)+3 @(s2)+-3 0.150000 s1 @(s1)+(3/2) @(s1)+(-3/2) 0.075000
# users = Feng Ye, John Carruth, Adam Aczel, Songxue Chi, Jaime Fernandez-Baca, Masaaki Matsuda, Tao Hong, Travis Williams, Wei Tian, Michael Cox
# local_contact = Wei Tian, Adam Aczel
# scan_title = La2Ni7, ( 1.000128 1.000088 12.997493 ), th2th, 40'-20'-S-20'-20' colli
# monochromator = PG002
# analyzer = Pg002
# sense = +-+
# collimation = 40-40-40-80
# samplename = Si powdre, Si crystal, FeGa alloy, La2Ni7 crystal, Ba2.8Sr0.2CoSn2O9 crystal
# sampletype = crystal
# samplemosaic = 30.000000
# latticeconstants = 5.084792,5.084792,24.669626,90.000000,90.000000,120.000000
# ubmatrix = -0.007838,-0.010887,0.040486,-0.193443,-0.199303,-0.001943,0.118692,-0.108301,-0.000494
# mode = 0
# plane_normal = 0.013424,0.025807,0.999577
# ubconf = UB27May2023_80143PM.ini
# preset_type = normal 
# preset_channel = mcu
# preset_value = 10.000000
# def_x = s2
# def_y = detector
# col_headers = 
#   Pt.         s2         s1       time   detector    monitor        mcu         m2   rad_coll        sgl        sgu   slitb_bt   slitb_lf   slitb_rt   slitb_tp   slita_bt   slita_lf   slita_rt   slita_tp        stl        stu         sz         a1         a2          q          h          k          l         ei         ef          e
      1   -99.9455   -10.5021     10.209     10.000  71101.000     10.000    41.5367     0.0149    -0.7692     1.4795    26.0000     4.0000     7.0000    26.0000    24.0000    10.0000     7.0000    24.0000     0.0014    -0.0024     0.0024    20.7700    41.5465     4.0438     0.9790     0.9789    12.7222    14.4503    14.4438     0.006
      2  -100.0929   -10.5765     10.210      5.000  71101.000     10.000    41.5367     0.0149    -0.7692     1.4795    26.0000     4.0000     7.0000    26.0000    24.0000    10.0000     7.0000    24.0000     0.0014    -0.0024     0.0024    20.7699    41.5465     4.0482     0.9800     0.9800    12.7360    14.4503    14.4438     0.006
      3  -100.2410   -10.6517     10.214     11.000  71101.000     10.000    41.5367     0.0149    -0.7692     1.4795    26.0000     4.0000     7.0000    26.0000    24.0000    10.0000     7.0000    24.0000     0.0014    -0.0024     0.0024    20.7699    41.5465     4.0526     0.9810     0.9810    12.7500    14.4503    14.4438     0.006
      4  -100.3929   -10.7269     10.194      8.000  71101.000     10.000    41.5367     0.0149    -0.7692     1.4795    26.0000     4.0000     7.0000    26.0000    24.0000    10.0000     7.0000    24.0000     0.0014    -0.0024     0.0024    20.7699    41.5465     4.0571     0.9822     0.9821    12.7640    14.4503    14.4438     0.006
      5  -100.5407   -10.8013     10.175      6.000  71101.000     10.000    41.5367     0.0149    -0.7692     1.4795    26.0000     4.0000     7.0000    26.0000    24.0000    10.0000     7.0000    24.0000     0.0014    -0.0024     0.0024    20.7699    41.5465     4.0614     0.9832     0.9832    12.7778    14.4503    14.4438     0.006
      6  -100.6950   -10.8767     10.144      6.000  71101.000     10.000    41.5367     0.0149    -0.7692     1.4795    26.0000     4.0000     7.0000    26.0000    24.0000    10.0000     7.0000    24.0000     0.0014    -0.0024     0.0024    20.7699    41.5465     4.0659     0.9843     0.9843    12.7918    14.4503    14.4438     0.006
      7  -100.8419   -10.9514     10.189      4.000  71101.000     10.000    41.5367     0.0149    -0.7692     1.4795    26.0000     4.0000     7.0000    26.0000    24.0000    10.0000     7.0000    24.0000     0.0014    -0.0024     0.0023    20.7698    41.5465     4.0703     0.9854     0.9853    12.8056    14.4503    14.4438     0.006
      8  -100.9930   -11.0266     10.173      7.000  71101.000     10.000    41.5367     0.0149    -0.7692     1.4795    26.0000     4.0000     7.0000    26.0000    24.0000    10.0000     7.0000    24.0000     0.0014    -0.0024     0.0024    20.7698    41.5465     4.0747     0.9864     0.9864    12.8195    14.4503    14.4438     0.006
      9  -101.1450   -11.1012     10.215      6.000  71101.000     10.000    41.5367     0.0149    -0.7692     1.4795    26.0000     4.0000     7.0000    26.0000    24.0000    10.0000     7.0000    24.0000     0.0014    -0.0024     0.0024    20.7698    41.5465     4.0792     0.9875     0.9875    12.8332    14.4503    14.4438     0.006
     10  -101.2946   -11.1762     10.167      7.000  71101.000     10.000    41.5367     0.0149    -0.7691     1.4795    26.0000     4.0000     7.0000    26.0000    24.0000    10.0000     7.0000    24.0000     0.0014    -0.0024     0.0024    20.7698    41.5465     4.0835     0.9886     0.9886    12.8470    14.4503    14.4438     0.006
     11  -101.4437   -11.2513     10.249     15.000  71101.000     10.000    41.5367     0.0149    -0.7692     1.4795    26.0000     4.0000     7.0000    26.0000    24.0000    10.0000     7.0000    24.0000     0.0014    -0.0024     0.0024    20.7698    41.5465     4.0879     0.9896     0.9896    12.8608    14.4503    14.4438     0.006
     12  -101.5947   -11.3269     10.254     11.000  71101.000     10.000    41.5367     0.0149    -0.7692     1.4795    26.0000     4.0000     7.0000    26.0000    24.0000    10.0000     7.0000    24.0000     0.0014    -0.0024     0.0024    20.7698    41.5465     4.0923     0.9907     0.9907    12.8747    14.4503    14.4438     0.006
     13  -101.7446   -11.4018     10.213     10.000  71101.000     10.000    41.5367     0.0149    -0.7692     1.4795    26.0000     4.0000     7.0000    26.0000    24.0000    10.0000     7.0000    24.0000     0.0014    -0.0024     0.0024    20.7698    41.5465     4.0966     0.9918     0.9917    12.8884    14.4503    14.4438     0.006
     14  -101.8939   -11.4768     10.233     11.000  71101.000     10.000    41.5367     0.0149    -0.7692     1.4795    26.0000     4.0000     7.0000    26.0000    24.0000    10.0000     7.0000    24.0000     0.0014    -0.0024     0.0024    20.7698    41.5465     4.1010     0.9928     0.9928    12.9021    14.4503    14.4438     0.006
     15  -102.0407   -11.5518     10.179     16.000  71101.000     10.000    41.5367     0.0149    -0.7692     1.4795    26.0000     4.0000     7.0000    26.0000    24.0000    10.0000     7.0000    24.0000     0.0014    -0.0024     0.0024    20.7698    41.5465     4.1052     0.9938     0.9938    12.9158    14.4503    14.4438     0.006
     16  -102.1912   -11.6268     10.182     12.000  71101.000     10.000    41.5367     0.0149    -0.7692     1.4795    26.0000     4.0000     7.0000    26.0000    24.0000    10.0000     7.0000    24.0000     0.0014    -0.0024     0.0024    20.7697    41.5465     4.1096     0.9949     0.9948    12.9295    14.4503    14.4438     0.006
     17  -102.3420   -11.7016     10.153     23.000  71101.000     10.000    41.5367     0.0149    -0.7692     1.4795    26.0000     4.0000     7.0000    26.0000    24.0000    10.0000     7.0000    24.0000     0.0014    -0.0024     0.0024    20.7697    41.5465     4.1140     0.9959     0.9959    12.9431    14.4503    14.4438     0.006
     18  -102.4921   -11.7767     10.200     20.000  71101.000     10.000    41.5367     0.0149    -0.7691     1.4795    26.0000     4.0000     7.0000    26.0000    24.0000    10.0000     7.0000    24.0000     0.0014    -0.0024     0.0024    20.7697    41.5465     4.1183     0.9970     0.9969    12.9567    14.4503    14.4438     0.006
     19  -102.6423   -11.8515     10.152     23.000  71101.000     10.000    41.5367     0.0149    -0.7691     1.4795    26.0000     4.0000     7.0000    26.0000    24.0000    10.0000     7.0000    24.0000     0.0014    -0.0024     0.0024    20.7697    41.5465     4.1226     0.9980     0.9980    12.9703    14.4503    14.4438     0.006
     20  -102.7923   -11.9266     10.162     20.000  71101.000     10.000    41.5367     0.0149    -0.7692     1.4795    26.0000     4.0000     7.0000    26.0000    24.0000    10.0000     7.0000    24.0000     0.0014    -0.0025     0.0024    20.7697    41.5465     4.1269     0.9991     0.9990    12.9839    14.4503    14.4438     0.006
     21  -102.9452   -12.0013     10.152     17.000  71101.000     10.000    41.5367     0.0149    -0.7692     1.4795    26.0000     4.0000     7.0000    26.0000    24.0000    10.0000     7.0000    24.0000     0.0014    -0.0024     0.0024    20.7697    41.5465     4.1313     1.0002     1.0001    12.9974    14.4503    14.4438     0.006
     22  -103.0961   -12.0763     10.148     11.000  71101.000     10.000    41.5367     0.0149    -0.7692     1.4795    26.0000     4.0000     7.0000    26.0000    24.0000    10.0000     7.0000    24.0000     0.0014    -0.0024     0.0024    20.7697    41.5465     4.1357     1.0012     1.0012    13.0110    14.4503    14.4438     0.006
     23  -103.2472   -12.1512     10.233      8.000  71101.000     10.000    41.5367     0.0149    -0.7692     1.4795    26.0000     4.0000     7.0000    26.0000    24.0000    10.0000     7.0000    24.0000     0.0014    -0.0024     0.0023    20.7697    41.5465     4.1400     1.0023     1.0023    13.0245    14.4503    14.4438     0.006
     24  -103.3948   -12.2263     10.226     17.000  71101.000     10.000    41.5367     0.0149    -0.7692     1.4795    26.0000     4.0000     7.0000    26.0000    24.0000    10.0000     7.0000    24.0000     0.0014    -0.0024     0.0024    20.7697    41.5464     4.1442     1.0033     1.0032    13.0380    14.4503    14.4438     0.006
     25  -103.5444   -12.3017     10.148     13.000  71101.000     10.000    41.5367     0.0149    -0.7691     1.4795    26.0000     4.0000     7.0000    26.0000    24.0000    10.0000     7.0000    24.0000     0.0014    -0.0024     0.0024    20.7697    41.5465     4.1485     1.0043     1.0043    13.0515    14.4503    14.4438     0.006
     26  -103.6918   -12.3766     10.147     10.000  71101.000     10.000    41.5367     0.0149    -0.7692     1.4795    26.0000     4.0000     7.0000    26.0000    24.0000    10.0000     7.0000    24.0000     0.0014    -0.0024     0.0024    20.7697    41.5465     4.1527     1.0053     1.0052    13.0649    14.4503    14.4438     0.006
     27  -103.8408   -12.4519     10.182     12.000  71101.000     10.000    41.5367     0.0149    -0.7692     1.4795    26.0000     4.0000     7.0000    26.0000    24.0000    10.0000     7.0000    24.0000     0.0014    -0.0024     0.0024    20.7697    41.5465     4.1569     1.0063     1.0063    13.0784    14.4503    14.4438     0.006
     28  -103.9942   -12.5268     10.264     10.000  71101.000     10.000    41.5367     0.0149    -0.7691     1.4795    26.0000     4.0000     7.0000    26.0000    24.0000    10.0000     7.0000    24.0000     0.0014    -0.0024     0.0024    20.7697    41.5465     4.1613     1.0074     1.0074    13.0918    14.4503    14.4438     0.006
     29  -104.1440   -12.6018     10.198      8.000  71101.000     10.000    41.5367     0.0149    -0.7692     1.4795    26.0000     4.0000     7.0000    26.0000    24.0000    10.0000     7.0000    24.0000     0.0014    -0.0024     0.0024    20.7697    41.5465     4.1655     1.0084     1.0084    13.1052    14.4503    14.4438     0.006
     30  -104.2935   -12.6768     10.211     12.000  71101.000     10.000    41.5367     0.0149    -0.7692     1.4795    26.0000     4.0000     7.0000    26.0000    24.0000    10.0000     7.0000    24.0000     0.0014    -0.0024     0.0024    20.7697    41.5465     4.1698     1.0094     1.0094    13.1186    14.4503    14.4438     0.006
     31  -104.4426   -12.7515     10.195     11.000  71101.000     10.000    41.5367     0.0149    -0.7692     1.4795    26.0000     4.0000     7.0000    26.0000    24.0000    10.0000     7.0000    24.0000     0.0014    -0.0024     0.0024    20.7697    41.5465     4.1740     1.0105     1.0104    13.1318    14.4503    14.4438     0.006
     32  -104.5934   -12.8269     10.221      8.000  71101.000     10.000    41.5367     0.0149    -0.7692     1.4795    26.0000     4.0000     7.0000    26.0000    24.0000    10.0000     7.0000    24.0000     0.0014    -0.0024     0.0024    20.7697    41.5465     4.1782     1.0115     1.0114    13.1452    14.4503    14.4438     0.006
     33  -104.7452   -12.9015     10.268     12.000  71101.000     10.000    41.5367     0.0149    -0.7692     1.4795    26.0000     4.0000     7.0000    26.0000    24.0000    10.0000     7.0000    24.0000     0.0014    -0.0024     0.0024    20.7697    41.5464     4.1825     1.0125     1.0125    13.1584    14.4503    14.4438     0.006
     34  -104.8959   -12.9764     10.112     11.000  71101.000     10.000    41.5367     0.0149    -0.7692     1.4795    26.0000     4.0000     7.0000    26.0000    24.0000    10.0000     7.0000    24.0000     0.0014    -0.0025     0.0024    20.7697    41.5465     4.1867     1.0136     1.0135    13.1717    14.4503    14.4438     0.006
     35  -105.0446   -13.0512     10.185     10.000  71101.000     10.000    41.5367     0.0149    -0.7692     1.4795    26.0000     4.0000     7.0000    26.0000    24.0000    10.0000     7.0000    24.0000     0.0014    -0.0024     0.0024    20.7697    41.5465     4.1909     1.0146     1.0145    13.1849    14.4503    14.4438     0.006
     36  -105.1918   -13.1264     10.196     10.000  71101.000     10.000    41.5367     0.0149    -0.7692     1.4795    26.0000     4.0000     7.0000    26.0000    24.0000    10.0000     7.0000    24.0000     0.0014    -0.0024     0.0024    20.7697    41.5464     4.1950     1.0155     1.0155    13.1982    14.4503    14.4438     0.006
     37  -105.3419   -13.2014     10.232      8.000  71101.000     10.000    41.5367     0.0149    -0.7692     1.4795    26.0000     4.0000     7.0000    26.0000    24.0000    10.0000     7.0000    24.0000     0.0014    -0.0024     0.0024    20.7697    41.5465     4.1992     1.0166     1.0165    13.2114    14.4503    14.4438     0.006
     38  -105.4913   -13.2761     10.211      9.000  71101.000     10.000    41.5367     0.0149    -0.7692     1.4795    26.0000     4.0000     7.0000    26.0000    24.0000    10.0000     7.0000    24.0000     0.0014    -0.0024     0.0024    20.7697    41.5465     4.2034     1.0176     1.0175    13.2245    14.4503    14.4438     0.006
     39  -105.6425   -13.3516     10.181     12.000  71101.000     10.000    41.5367     0.0149    -0.7692     1.4795    26.0000     4.0000     7.0000    26.0000    24.0000    10.0000     7.0000    24.0000     0.0014    -0.0024     0.0024    20.7696    41.5465     4.2076     1.0186     1.0185    13.2377    14.4503    14.4438     0.006
     40  -105.7925   -13.4270     10.234      8.000  71101.000     10.000    41.5367     0.0149    -0.7692     1.4795    26.0000     4.0000     7.0000    26.0000    24.0000    10.0000     7.0000    24.0000     0.0014    -0.0024     0.0024    20.7697    41.5465     4.2118     1.0196     1.0196    13.2509    14.4503    14.4438     0.006
     41  -105.9424   -13.5019     10.162     11.000  71101.000     10.000    41.5367     0.0149    -0.7692     1.4795    26.0000     4.0000     7.0000    26.0000    24.0000    10.0000     7.0000    24.0000     0.0014    -0.0024     0.0024    20.7696    41.5465     4.2159     1.0206     1.0206    13.2640    14.4503    14.4438     0.006
# Sum of Counts = 459
# Center of Mass = -103.023950+/-6.801002
# Full Width Half-Maximum = 3.192171+/-2.000465
# 5:48:20 AM  5/28/2023   scan completed.
