# scan = 692
# date = 5/29/2023
# time = 5:09:04 AM
# proposal = 9879
# experiment = HB-1A  - Backend upgrade commissioning
# experiment_number = 978
# command = scan h -0.0052 k -0.0052 l 3.7 4.3 0.03
# builtin_command = scan h -0.0052 k -0.0052 l 3.7 4.3 0.03
# users = Feng Ye, John Carruth, Adam Aczel, Songxue Chi, Jaime Fernandez-Baca, Masaaki Matsuda, Tao Hong, Travis Williams, Wei Tian, Michael Cox
# local_contact = Wei Tian, Adam Aczel
# scan_title = La2Ni7, ( 0.000242 0.00024 3.999793 ), 40'-20'-S-20'-20' colli
# monochromator = PG002
# analyzer = Pg002
# sense = +-+
# collimation = 40-40-40-80
# samplename = Si powdre, Si crystal, FeGa alloy, La2Ni7 crystal, Ba2.8Sr0.2CoSn2O9 crystal
# sampletype = crystal
# samplemosaic = 30.000000
# latticeconstants = 5.084792,5.084792,24.669626,90.000000,90.000000,120.000000
# ubmatrix = -0.007838,-0.010887,0.040486,-0.193443,-0.199303,-0.001943,0.118692,-0.108301,-0.000494
# mode = 0
# plane_normal = 0.013424,0.025807,0.999577
# ubconf = UB27May2023_80143PM.ini
# preset_type = normal 
# preset_channel = mcu
# preset_value = 2.000000
# def_x = l
# def_y = detector
# col_headers = 
#   Pt.          h          k          l       time   detector    monitor        mcu         m2   rad_coll         s1         s2        sgl        sgu   slitb_bt   slitb_lf   slitb_rt   slitb_tp   slita_bt   slita_lf   slita_rt   slita_tp        stl        stu         sz         a1         a2          q         ei         ef          e
      1    -0.0052    -0.0052     3.7006      1.945      6.000  14221.000      2.000    41.5367     0.0149    -8.3684   -20.5636    -0.7692     1.4795    26.0000     4.0000     7.0000    26.0000    24.0000    10.0000     7.0000    24.0000     0.0014    -0.0024     0.0024    20.7702    41.5465     0.9426    14.4503    14.4437     0.006
      2    -0.0052    -0.0052     3.7295      1.992      3.000  14221.000      2.000    41.5367     0.0149    -8.4465   -20.7263    -0.7692     1.4795    26.0000     4.0000     7.0000    26.0000    24.0000    10.0000     7.0000    24.0000     0.0014    -0.0024     0.0024    20.7702    41.5465     0.9500    14.4503    14.4437     0.006
      3    -0.0052    -0.0052     3.7596      2.016      3.000  14221.000      2.000    41.5367     0.0149    -8.5238   -20.8955    -0.7692     1.4795    26.0000     4.0000     7.0000    26.0000    24.0000    10.0000     7.0000    24.0000     0.0014    -0.0024     0.0024    20.7702    41.5465     0.9576    14.4503    14.4437     0.006
      4    -0.0052    -0.0052     3.7899      2.002      3.000  14221.000      2.000    41.5367     0.0149    -8.6022   -21.0657    -0.7692     1.4795    26.0000     4.0000     7.0000    26.0000    24.0000    10.0000     7.0000    24.0000     0.0014    -0.0024     0.0024    20.7702    41.5465     0.9654    14.4503    14.4437     0.006
      5    -0.0052    -0.0052     3.8201      2.026      4.000  14221.000      2.000    41.5367     0.0149    -8.6797   -21.2356    -0.7692     1.4795    26.0000     4.0000     7.0000    26.0000    24.0000    10.0000     7.0000    24.0000     0.0014    -0.0024     0.0024    20.7702    41.5465     0.9730    14.4503    14.4437     0.006
      6    -0.0052    -0.0052     3.8502      1.990      1.000  14221.000      2.000    41.5367     0.0149    -8.7584   -21.4049    -0.7692     1.4795    26.0000     4.0000     7.0000    26.0000    24.0000    10.0000     7.0000    24.0000     0.0014    -0.0024     0.0024    20.7702    41.5465     0.9807    14.4503    14.4437     0.006
      7    -0.0052    -0.0052     3.8800      2.015      3.000  14221.000      2.000    41.5367     0.0149    -8.8363   -21.5723    -0.7692     1.4795    26.0000     4.0000     7.0000    26.0000    24.0000    10.0000     7.0000    24.0000     0.0014    -0.0024     0.0023    20.7701    41.5465     0.9883    14.4503    14.4437     0.006
      8    -0.0052    -0.0052     3.9096      2.007      4.000  14221.000      2.000    41.5367     0.0149    -8.9144   -21.7390    -0.7692     1.4795    26.0000     4.0000     7.0000    26.0000    24.0000    10.0000     7.0000    24.0000     0.0014    -0.0025     0.0024    20.7701    41.5466     0.9958    14.4503    14.4437     0.006
      9    -0.0052    -0.0052     3.9398      2.001      4.000  14221.000      2.000    41.5367     0.0149    -8.9931   -21.9090    -0.7692     1.4795    26.0000     4.0000     7.0000    26.0000    24.0000    10.0000     7.0000    24.0000     0.0014    -0.0024     0.0024    20.7701    41.5466     1.0035    14.4503    14.4437     0.006
     10    -0.0052    -0.0052     3.9694      2.000      7.000  14221.000      2.000    41.5367     0.0149    -9.0716   -22.0756    -0.7692     1.4795    26.0000     4.0000     7.0000    26.0000    24.0000    10.0000     7.0000    24.0000     0.0014    -0.0024     0.0023    20.7701    41.5466     1.0111    14.4503    14.4437     0.006
     11    -0.0052    -0.0052     3.9995      1.992      1.000  14221.000      2.000    41.5367     0.0149    -9.1502   -22.2448    -0.7692     1.4795    26.0000     4.0000     7.0000    26.0000    24.0000    10.0000     7.0000    24.0000     0.0014    -0.0024     0.0024    20.7701    41.5466     1.0187    14.4503    14.4437     0.006
     12    -0.0052    -0.0052     4.0301      2.003      3.000  14221.000      2.000    41.5367     0.0149    -9.2293   -22.4172    -0.7692     1.4795    26.0000     4.0000     7.0000    26.0000    24.0000    10.0000     7.0000    24.0000     0.0014    -0.0024     0.0023    20.7701    41.5466     1.0265    14.4503    14.4437     0.006
     13    -0.0052    -0.0052     4.0602      1.976      3.000  14221.000      2.000    41.5367     0.0149    -9.3085   -22.5869    -0.7692     1.4795    26.0000     4.0000     7.0000    26.0000    24.0000    10.0000     7.0000    24.0000     0.0014    -0.0024     0.0024    20.7701    41.5466     1.0342    14.4503    14.4437     0.006
     14    -0.0052    -0.0052     4.0903      1.997      3.000  14221.000      2.000    41.5367     0.0149    -9.3879   -22.7566    -0.7692     1.4795    26.0000     4.0000     7.0000    26.0000    24.0000    10.0000     7.0000    24.0000     0.0014    -0.0025     0.0024    20.7700    41.5466     1.0419    14.4503    14.4437     0.006
     15    -0.0052    -0.0052     4.1207      2.000      2.000  14221.000      2.000    41.5367     0.0149    -9.4673   -22.9278    -0.7692     1.4795    26.0000     4.0000     7.0000    26.0000    24.0000    10.0000     7.0000    24.0000     0.0014    -0.0024     0.0024    20.7700    41.5466     1.0496    14.4503    14.4437     0.006
     16    -0.0052    -0.0052     4.1506      1.987      5.000  14221.000      2.000    41.5367     0.0149    -9.5463   -23.0967    -0.7692     1.4795    26.0000     4.0000     7.0000    26.0000    24.0000    10.0000     7.0000    24.0000     0.0014    -0.0024     0.0023    20.7700    41.5466     1.0572    14.4503    14.4437     0.006
     17    -0.0052    -0.0052     4.1802      2.001      1.000  14221.000      2.000    41.5367     0.0149    -9.6256   -23.2637    -0.7692     1.4795    26.0000     4.0000     7.0000    26.0000    24.0000    10.0000     7.0000    24.0000     0.0014    -0.0024     0.0024    20.7700    41.5466     1.0648    14.4503    14.4437     0.006
     18    -0.0052    -0.0052     4.2097      2.015      0.000  14221.000      2.000    41.5367     0.0149    -9.7052   -23.4298    -0.7692     1.4795    26.0000     4.0000     7.0000    26.0000    24.0000    10.0000     7.0000    24.0000     0.0014    -0.0024     0.0024    20.7700    41.5466     1.0723    14.4503    14.4437     0.006
     19    -0.0052    -0.0052     4.2396      2.019      6.000  14221.000      2.000    41.5367     0.0149    -9.7845   -23.5988    -0.7692     1.4795    26.0000     4.0000     7.0000    26.0000    24.0000    10.0000     7.0000    24.0000     0.0014    -0.0025     0.0024    20.7700    41.5466     1.0799    14.4503    14.4437     0.006
     20    -0.0052    -0.0052     4.2697      2.007      3.000  14221.000      2.000    41.5367     0.0149    -9.8639   -23.7690    -0.7692     1.4795    26.0000     4.0000     7.0000    26.0000    24.0000    10.0000     7.0000    24.0000     0.0014    -0.0024     0.0024    20.7700    41.5466     1.0876    14.4503    14.4437     0.006
     21    -0.0052    -0.0052     4.2997      2.002      4.000  14221.000      2.000    41.5367     0.0149    -9.9440   -23.9380    -0.7692     1.4795    26.0000     4.0000     7.0000    26.0000    24.0000    10.0000     7.0000    24.0000     0.0014    -0.0024     0.0024    20.7700    41.5466     1.0952    14.4503    14.4437     0.006
# Sum of Counts = 69
# Center of Mass = 3.987768+/-0.679300
# Full Width Half-Maximum = 0.375841+/-0.343224
# 5:14:13 AM  5/29/2023   scan completed.
