# scan = 709
# date = 5/29/2023
# time = 6:42:09 AM
# proposal = 9879
# experiment = HB-1A  - Backend upgrade commissioning
# experiment_number = 978
# command = scan h 0.0016 k 0.0016 l 3.7 4.3 0.03
# builtin_command = scan h 0.0016 k 0.0016 l 3.7 4.3 0.03
# users = Feng Ye, John Carruth, Adam Aczel, Songxue Chi, Jaime Fernandez-Baca, Masaaki Matsuda, Tao Hong, Travis Williams, Wei Tian, Michael Cox
# local_contact = Wei Tian, Adam Aczel
# scan_title = La2Ni7, ( 0.000242 0.00024 3.999793 ), 40'-20'-S-20'-20' colli
# monochromator = PG002
# analyzer = Pg002
# sense = +-+
# collimation = 40-40-40-80
# samplename = Si powdre, Si crystal, FeGa alloy, La2Ni7 crystal, Ba2.8Sr0.2CoSn2O9 crystal
# sampletype = crystal
# samplemosaic = 30.000000
# latticeconstants = 5.084792,5.084792,24.669626,90.000000,90.000000,120.000000
# ubmatrix = -0.007838,-0.010887,0.040486,-0.193443,-0.199303,-0.001943,0.118692,-0.108301,-0.000494
# mode = 0
# plane_normal = 0.013424,0.025807,0.999577
# ubconf = UB27May2023_80143PM.ini
# preset_type = normal 
# preset_channel = mcu
# preset_value = 2.000000
# def_x = l
# def_y = detector
# col_headers = 
#   Pt.          h          k          l       time   detector    monitor        mcu         m2   rad_coll         s1         s2        sgl        sgu   slitb_bt   slitb_lf   slitb_rt   slitb_tp   slita_bt   slita_lf   slita_rt   slita_tp        stl        stu         sz         a1         a2          q         ei         ef          e
      1     0.0016     0.0016     3.7007      2.009      0.000  14221.000      2.000    41.5367     0.0149    -7.3461   -20.5626    -0.7691     1.4795    26.0000     4.0000     7.0000    26.0000    24.0000    10.0000     7.0000    24.0000     0.0014    -0.0025     0.0024    20.7703    41.5465     0.9426    14.4503    14.4437     0.006
      2     0.0016     0.0016     3.7295      2.035      5.000  14221.000      2.000    41.5367     0.0149    -7.4318   -20.7242    -0.7691     1.4795    26.0000     4.0000     7.0000    26.0000    24.0000    10.0000     7.0000    24.0000     0.0014    -0.0025     0.0024    20.7702    41.5465     0.9499    14.4503    14.4437     0.006
      3     0.0016     0.0016     3.7597      2.008      1.000  14221.000      2.000    41.5367     0.0149    -7.5179   -20.8939    -0.7691     1.4795    26.0000     4.0000     7.0000    26.0000    24.0000    10.0000     7.0000    24.0000     0.0014    -0.0025     0.0024    20.7702    41.5465     0.9576    14.4503    14.4437     0.006
      4     0.0016     0.0016     3.7898      1.998      1.000  14221.000      2.000    41.5367     0.0149    -7.6034   -21.0636    -0.7691     1.4795    26.0000     4.0000     7.0000    26.0000    24.0000    10.0000     7.0000    24.0000     0.0014    -0.0024     0.0024    20.7702    41.5465     0.9653    14.4503    14.4437     0.006
      5     0.0016     0.0016     3.8202      1.999      1.000  14221.000      2.000    41.5367     0.0149    -7.6895   -21.2341    -0.7691     1.4795    26.0000     4.0000     7.0000    26.0000    24.0000    10.0000     7.0000    24.0000     0.0014    -0.0025     0.0024    20.7702    41.5465     0.9730    14.4503    14.4437     0.006
      6     0.0016     0.0016     3.8502      1.993      3.000  14221.000      2.000    41.5367     0.0149    -7.7751   -21.4029    -0.7691     1.4795    26.0000     4.0000     7.0000    26.0000    24.0000    10.0000     7.0000    24.0000     0.0014    -0.0024     0.0024    20.7701    41.5465     0.9806    14.4503    14.4437     0.006
      7     0.0016     0.0016     3.8800      2.023      3.000  14221.000      2.000    41.5367     0.0149    -7.8611   -21.5706    -0.7691     1.4795    26.0000     4.0000     7.0000    26.0000    24.0000    10.0000     7.0000    24.0000     0.0014    -0.0025     0.0023    20.7701    41.5465     0.9882    14.4503    14.4437     0.006
      8     0.0016     0.0016     3.9096      2.037      1.000  14221.000      2.000    41.5367     0.0149    -7.9473   -21.7373    -0.7691     1.4795    26.0000     4.0000     7.0000    26.0000    24.0000    10.0000     7.0000    24.0000     0.0014    -0.0024     0.0024    20.7701    41.5465     0.9958    14.4503    14.4437     0.006
      9     0.0016     0.0016     3.9398      2.011      3.000  14221.000      2.000    41.5367     0.0149    -8.0326   -21.9070    -0.7691     1.4795    26.0000     4.0000     7.0000    26.0000    24.0000    10.0000     7.0000    24.0000     0.0014    -0.0025     0.0024    20.7701    41.5466     1.0034    14.4503    14.4437     0.006
     10     0.0016     0.0016     3.9696      2.014     61.000  14221.000      2.000    41.5367     0.0149    -8.1182   -22.0747    -0.7691     1.4795    26.0000     4.0000     7.0000    26.0000    24.0000    10.0000     7.0000    24.0000     0.0014    -0.0025     0.0023    20.7701    41.5466     1.0110    14.4503    14.4437     0.006
     11     0.0016     0.0016     3.9996      2.007    189.000  14221.000      2.000    41.5367     0.0149    -8.2048   -22.2439    -0.7691     1.4795    26.0000     4.0000     7.0000    26.0000    24.0000    10.0000     7.0000    24.0000     0.0014    -0.0025     0.0024    20.7701    41.5466     1.0187    14.4503    14.4437     0.006
     12     0.0016     0.0016     4.0299      2.003    155.000  14221.000      2.000    41.5367     0.0149    -8.2902   -22.4145    -0.7691     1.4795    26.0000     4.0000     7.0000    26.0000    24.0000    10.0000     7.0000    24.0000     0.0014    -0.0025     0.0024    20.7700    41.5466     1.0264    14.4503    14.4437     0.006
     13     0.0016     0.0016     4.0603      2.014     32.000  14221.000      2.000    41.5367     0.0149    -8.3769   -22.5856    -0.7691     1.4795    26.0000     4.0000     7.0000    26.0000    24.0000    10.0000     7.0000    24.0000     0.0014    -0.0025     0.0024    20.7700    41.5466     1.0341    14.4503    14.4437     0.006
     14     0.0016     0.0016     4.0905      2.000     11.000  14221.000      2.000    41.5367     0.0149    -8.4630   -22.7561    -0.7691     1.4795    26.0000     4.0000     7.0000    26.0000    24.0000    10.0000     7.0000    24.0000     0.0014    -0.0025     0.0024    20.7700    41.5466     1.0418    14.4503    14.4437     0.006
     15     0.0016     0.0016     4.1207      2.016      2.000  14221.000      2.000    41.5367     0.0149    -8.5484   -22.9263    -0.7691     1.4795    26.0000     4.0000     7.0000    26.0000    24.0000    10.0000     7.0000    24.0000     0.0014    -0.0025     0.0023    20.7700    41.5466     1.0495    14.4503    14.4437     0.006
     16     0.0016     0.0016     4.1505      1.984      2.000  14221.000      2.000    41.5367     0.0149    -8.6345   -23.0942    -0.7691     1.4795    26.0000     4.0000     7.0000    26.0000    24.0000    10.0000     7.0000    24.0000     0.0014    -0.0025     0.0024    20.7700    41.5466     1.0571    14.4503    14.4437     0.006
     17     0.0016     0.0016     4.1801      2.010      7.000  14221.000      2.000    41.5367     0.0149    -8.7202   -23.2611    -0.7691     1.4795    26.0000     4.0000     7.0000    26.0000    24.0000    10.0000     7.0000    24.0000     0.0014    -0.0025     0.0024    20.7700    41.5466     1.0646    14.4503    14.4437     0.006
     18     0.0016     0.0016     4.2096      2.025      1.000  14221.000      2.000    41.5367     0.0149    -8.8068   -23.4278    -0.7691     1.4795    26.0000     4.0000     7.0000    26.0000    24.0000    10.0000     7.0000    24.0000     0.0014    -0.0025     0.0024    20.7700    41.5466     1.0722    14.4503    14.4437     0.006
     19     0.0016     0.0016     4.2397      1.990      2.000  14221.000      2.000    41.5367     0.0149    -8.8919   -23.5979    -0.7691     1.4795    26.0000     4.0000     7.0000    26.0000    24.0000    10.0000     7.0000    24.0000     0.0014    -0.0025     0.0024    20.7700    41.5466     1.0798    14.4503    14.4437     0.006
     20     0.0016     0.0016     4.2699      2.007      4.000  14221.000      2.000    41.5367     0.0149    -8.9779   -23.7681    -0.7691     1.4795    26.0000     4.0000     7.0000    26.0000    24.0000    10.0000     7.0000    24.0000     0.0014    -0.0025     0.0024    20.7700    41.5466     1.0875    14.4503    14.4437     0.006
     21     0.0016     0.0016     4.2998      1.976      2.000  14221.000      2.000    41.5367     0.0149    -9.0637   -23.9370    -0.7691     1.4795    26.0000     4.0000     7.0000    26.0000    24.0000    10.0000     7.0000    24.0000     0.0014    -0.0025     0.0023    20.7700    41.5466     1.0951    14.4503    14.4437     0.006
# Sum of Counts = 486
# Center of Mass = 4.013864+/-0.257505
# Full Width Half-Maximum = 0.124033+/-0.093192
# 6:47:27 AM  5/29/2023   scan completed.
