# scan = 718
# date = 5/29/2023
# time = 7:31:19 AM
# proposal = 9879
# experiment = HB-1A  - Backend upgrade commissioning
# experiment_number = 978
# command = scan h 0.0052 k 0.0052 l 3.7 4.3 0.03
# builtin_command = scan h 0.0052 k 0.0052 l 3.7 4.3 0.03
# users = Feng Ye, John Carruth, Adam Aczel, Songxue Chi, Jaime Fernandez-Baca, Masaaki Matsuda, Tao Hong, Travis Williams, Wei Tian, Michael Cox
# local_contact = Wei Tian, Adam Aczel
# scan_title = La2Ni7, ( 0.000242 0.00024 3.999793 ), 40'-20'-S-20'-20' colli
# monochromator = PG002
# analyzer = Pg002
# sense = +-+
# collimation = 40-40-40-80
# samplename = Si powdre, Si crystal, FeGa alloy, La2Ni7 crystal, Ba2.8Sr0.2CoSn2O9 crystal
# sampletype = crystal
# samplemosaic = 30.000000
# latticeconstants = 5.084792,5.084792,24.669626,90.000000,90.000000,120.000000
# ubmatrix = -0.007838,-0.010887,0.040486,-0.193443,-0.199303,-0.001943,0.118692,-0.108301,-0.000494
# mode = 0
# plane_normal = 0.013424,0.025807,0.999577
# ubconf = UB27May2023_80143PM.ini
# preset_type = normal 
# preset_channel = mcu
# preset_value = 2.000000
# def_x = l
# def_y = detector
# col_headers = 
#   Pt.          h          k          l       time   detector    monitor        mcu         m2   rad_coll         s1         s2        sgl        sgu   slitb_bt   slitb_lf   slitb_rt   slitb_tp   slita_bt   slita_lf   slita_rt   slita_tp        stl        stu         sz         a1         a2          q         ei         ef          e
      1     0.0052     0.0052     3.7006      1.965      0.000  14221.000      2.000    41.5367     0.0149    -6.8059   -20.5641    -0.7691     1.4795    26.0000     4.0000     7.0000    26.0000    24.0000    10.0000     7.0000    24.0000     0.0014    -0.0025     0.0024    20.7703    41.5465     0.9426    14.4503    14.4438     0.006
      2     0.0052     0.0052     3.7294      2.039      2.000  14221.000      2.000    41.5367     0.0149    -6.8957   -20.7257    -0.7691     1.4795    26.0000     4.0000     7.0000    26.0000    24.0000    10.0000     7.0000    24.0000     0.0014    -0.0025     0.0024    20.7702    41.5465     0.9499    14.4503    14.4437     0.006
      3     0.0052     0.0052     3.7598      1.986      4.000  14221.000      2.000    41.5367     0.0149    -6.9861   -20.8964    -0.7692     1.4795    26.0000     4.0000     7.0000    26.0000    24.0000    10.0000     7.0000    24.0000     0.0014    -0.0024     0.0024    20.7702    41.5465     0.9577    14.4503    14.4437     0.006
      4     0.0052     0.0052     3.7898      1.986      1.000  14221.000      2.000    41.5367     0.0149    -7.0759   -21.0652    -0.7691     1.4795    26.0000     4.0000     7.0000    26.0000    24.0000    10.0000     7.0000    24.0000     0.0014    -0.0025     0.0024    20.7702    41.5465     0.9653    14.4503    14.4437     0.006
      5     0.0052     0.0052     3.8202      2.011      2.000  14221.000      2.000    41.5367     0.0149    -7.1661   -21.2357    -0.7691     1.4795    26.0000     4.0000     7.0000    26.0000    24.0000    10.0000     7.0000    24.0000     0.0014    -0.0025     0.0023    20.7702    41.5465     0.9731    14.4503    14.4437     0.006
      6     0.0052     0.0052     3.8502      2.029      1.000  14221.000      2.000    41.5367     0.0149    -7.2560   -21.4048    -0.7691     1.4795    26.0000     4.0000     7.0000    26.0000    24.0000    10.0000     7.0000    24.0000     0.0014    -0.0025     0.0024    20.7701    41.5465     0.9807    14.4503    14.4437     0.006
      7     0.0052     0.0052     3.8800      2.007      3.000  14221.000      2.000    41.5367     0.0149    -7.3466   -21.5721    -0.7691     1.4795    26.0000     4.0000     7.0000    26.0000    24.0000    10.0000     7.0000    24.0000     0.0014    -0.0025     0.0024    20.7701    41.5466     0.9883    14.4503    14.4437     0.006
      8     0.0052     0.0052     3.9096      2.025      1.000  14221.000      2.000    41.5367     0.0149    -7.4361   -21.7388    -0.7691     1.4795    26.0000     4.0000     7.0000    26.0000    24.0000    10.0000     7.0000    24.0000     0.0014    -0.0025     0.0024    20.7701    41.5466     0.9958    14.4503    14.4437     0.006
      9     0.0052     0.0052     3.9397      2.021      4.000  14221.000      2.000    41.5367     0.0149    -7.5262   -21.9080    -0.7691     1.4795    26.0000     4.0000     7.0000    26.0000    24.0000    10.0000     7.0000    24.0000     0.0014    -0.0025     0.0024    20.7701    41.5466     1.0035    14.4503    14.4437     0.006
     10     0.0052     0.0052     3.9695      1.982      2.000  14221.000      2.000    41.5367     0.0149    -7.6155   -22.0761    -0.7691     1.4795    26.0000     4.0000     7.0000    26.0000    24.0000    10.0000     7.0000    24.0000     0.0014    -0.0025     0.0024    20.7701    41.5466     1.0111    14.4503    14.4437     0.006
     11     0.0052     0.0052     3.9996      1.997      3.000  14221.000      2.000    41.5367     0.0149    -7.7054   -22.2454    -0.7691     1.4795    26.0000     4.0000     7.0000    26.0000    24.0000    10.0000     7.0000    24.0000     0.0014    -0.0024     0.0024    20.7701    41.5466     1.0188    14.4503    14.4437     0.006
     12     0.0052     0.0052     4.0299      2.010      6.000  14221.000      2.000    41.5367     0.0149    -7.7946   -22.4163    -0.7691     1.4795    26.0000     4.0000     7.0000    26.0000    24.0000    10.0000     7.0000    24.0000     0.0014    -0.0024     0.0024    20.7700    41.5466     1.0265    14.4503    14.4437     0.006
     13     0.0052     0.0052     4.0602      2.022      6.000  14221.000      2.000    41.5367     0.0149    -7.8843   -22.5868    -0.7691     1.4795    26.0000     4.0000     7.0000    26.0000    24.0000    10.0000     7.0000    24.0000     0.0014    -0.0025     0.0024    20.7700    41.5466     1.0342    14.4503    14.4437     0.006
     14     0.0052     0.0052     4.0906      2.001      3.000  14221.000      2.000    41.5367     0.0149    -7.9738   -22.7579    -0.7691     1.4795    26.0000     4.0000     7.0000    26.0000    24.0000    10.0000     7.0000    24.0000     0.0014    -0.0024     0.0024    20.7700    41.5466     1.0419    14.4503    14.4437     0.006
     15     0.0052     0.0052     4.1200      1.999      0.000  14221.000      2.000    41.5367     0.0149    -8.0631   -22.9241    -0.7691     1.4795    26.0000     4.0000     7.0000    26.0000    24.0000    10.0000     7.0000    24.0000     0.0014    -0.0025     0.0024    20.7700    41.5466     1.0494    14.4503    14.4437     0.006
     16     0.0052     0.0052     4.1505      2.036      5.000  14221.000      2.000    41.5367     0.0149    -8.1526   -23.0960    -0.7691     1.4795    26.0000     4.0000     7.0000    26.0000    24.0000    10.0000     7.0000    24.0000     0.0014    -0.0025     0.0024    20.7700    41.5466     1.0572    14.4503    14.4437     0.006
     17     0.0052     0.0052     4.1802      1.973      2.000  14221.000      2.000    41.5367     0.0149    -8.2422   -23.2635    -0.7691     1.4795    26.0000     4.0000     7.0000    26.0000    24.0000    10.0000     7.0000    24.0000     0.0014    -0.0025     0.0024    20.7700    41.5466     1.0647    14.4503    14.4437     0.006
     18     0.0052     0.0052     4.2095      2.002      4.000  14221.000      2.000    41.5367     0.0149    -8.3317   -23.4288    -0.7691     1.4795    26.0000     4.0000     7.0000    26.0000    24.0000    10.0000     7.0000    24.0000     0.0014    -0.0025     0.0024    20.7700    41.5466     1.0722    14.4503    14.4437     0.006
     19     0.0052     0.0052     4.2396      2.036      2.000  14221.000      2.000    41.5367     0.0149    -8.4210   -23.5985    -0.7691     1.4795    26.0000     4.0000     7.0000    26.0000    24.0000    10.0000     7.0000    24.0000     0.0014    -0.0025     0.0023    20.7700    41.5466     1.0799    14.4503    14.4437     0.006
     20     0.0052     0.0052     4.2699      1.998      1.000  14221.000      2.000    41.5367     0.0149    -8.5102   -23.7698    -0.7691     1.4795    26.0000     4.0000     7.0000    26.0000    24.0000    10.0000     7.0000    24.0000     0.0014    -0.0025     0.0023    20.7700    41.5466     1.0876    14.4503    14.4437     0.006
     21     0.0052     0.0052     4.2998      2.003      3.000  14221.000      2.000    41.5367     0.0149    -8.5996   -23.9385    -0.7691     1.4795    26.0000     4.0000     7.0000    26.0000    24.0000    10.0000     7.0000    24.0000     0.0014    -0.0025     0.0024    20.7700    41.5466     1.0952    14.4503    14.4437     0.006
# Sum of Counts = 55
# Center of Mass = 4.026116+/-0.768052
# Full Width Half-Maximum = 0.319268+/-0.356446
# 7:36:48 AM  5/29/2023   scan completed.
