# scan = 870
# date = 6/2/2023
# time = 8:25:22 AM
# proposal = 9879
# experiment = HB-1A  - Backend upgrade commissioning
# experiment_number = 978
# command = scan s2 -10 -120 0.2 preset mcu 60
# builtin_command = scan s2 -10 -120 0.2 preset mcu 60
# users = Feng Ye, John Carruth, Adam Aczel, Songxue Chi, Jaime Fernandez-Baca, Masaaki Matsuda, Tao Hong, Travis Williams, Wei Tian, Michael Cox
# local_contact = Wei Tian, Adam Aczel
# scan_title = Si powder, 1 mm annulus triple axis can, long s2 scan, part 2
# monochromator = PG002
# analyzer = Pg002
# sense = +-+
# collimation = 40-40-40-80
# samplename = Si powdre, Si crystal, FeGa alloy, La2Ni7 crystal, Ba2.8Sr0.2CoSn2O9 crystal
# sampletype = crystal
# samplemosaic = 30.000000
# latticeconstants = 5.419666,5.419666,5.419666,90.000000,90.000000,90.000000
# ubmatrix = 0.112527,0.102287,0.104500,-0.073949,-0.073950,0.152013,0.126152,-0.134588,-0.004105
# mode = 0
# plane_normal = 0.039245,0.000005,0.999230
# ubconf = UB29May2023_80143PM.ini
# preset_type = normal 
# preset_channel = mcu
# preset_value = 60.000000
# def_x = s2
# def_y = detector
# col_headers = 
#   Pt.         s2       time   detector    monitor        mcu         m2   rad_coll         s1        sgl        sgu   slitb_bt   slitb_lf   slitb_rt   slitb_tp   slita_bt   slita_lf   slita_rt   slita_tp        stl        stu         sz         a1         a2          q          h          k          l         ei         ef          e
      1    -9.9999     59.861   3320.000 444553.000     60.000    41.5367     0.0149    -9.3441     0.0002     0.0005    30.0000    10.0000    10.0000    30.0000    25.0000    10.0000    10.0000    25.0000     0.0019    -0.0024     0.0031    20.7723    41.5355     0.4603     0.2294     0.2074     0.2491    14.4503    14.4511    -0.000
      2   -10.2002     59.983   3226.000 444553.000     60.000    41.5367     0.0149    -9.3441     0.0002     0.0005    30.0000    10.0000    10.0000    30.0000    25.0000    10.0000    10.0000    25.0000     0.0019    -0.0024     0.0031    20.7717    41.5355     0.4695     0.2343     0.2119     0.2535    14.4503    14.4511    -0.000
      3   -10.3986     60.086   3307.000 444553.000     60.000    41.5367     0.0149    -9.3441     0.0002     0.0005    30.0000    10.0000    10.0000    30.0000    25.0000    10.0000    10.0000    25.0000     0.0020    -0.0024     0.0030    20.7713    41.5355     0.4786     0.2391     0.2163     0.2578    14.4503    14.4511    -0.000
      4   -10.5985     59.837   3179.000 444553.000     60.000    41.5367     0.0149    -9.3441     0.0002     0.0005    30.0000    10.0000    10.0000    30.0000    25.0000    10.0000    10.0000    25.0000     0.0020    -0.0024     0.0030    20.7711    41.5355     0.4878     0.2440     0.2207     0.2622    14.4503    14.4511    -0.000
      5   -10.7977     59.880   3278.000 444553.000     60.000    41.5367     0.0149    -9.3441     0.0002     0.0005    30.0000    10.0000    10.0000    30.0000    25.0000    10.0000    10.0000    25.0000     0.0019    -0.0024     0.0030    20.7709    41.5355     0.4969     0.2489     0.2252     0.2665    14.4503    14.4511    -0.000
      6   -10.9992     59.878   3215.000 444553.000     60.000    41.5367     0.0149    -9.3441     0.0002     0.0005    30.0000    10.0000    10.0000    30.0000    25.0000    10.0000    10.0000    25.0000     0.0020    -0.0024     0.0031    20.7708    41.5355     0.5062     0.2539     0.2297     0.2709    14.4503    14.4511    -0.000
      7   -11.1991     59.962   3211.000 444553.000     60.000    41.5367     0.0149    -9.3441     0.0002     0.0005    30.0000    10.0000    10.0000    30.0000    25.0000    10.0000    10.0000    25.0000     0.0019    -0.0024     0.0030    20.7707    41.5355     0.5154     0.2589     0.2342     0.2752    14.4503    14.4511    -0.000
      8   -11.4002     59.955   3142.000 444553.000     60.000    41.5367     0.0149    -9.3441     0.0002     0.0005    30.0000    10.0000    10.0000    30.0000    25.0000    10.0000    10.0000    25.0000     0.0019    -0.0024     0.0030    20.7706    41.5355     0.5246     0.2638     0.2388     0.2795    14.4503    14.4511    -0.000
      9   -11.6037     60.077   3061.000 444553.000     60.000    41.5367     0.0149    -9.3441     0.0002     0.0005    30.0000    10.0000    10.0000    30.0000    25.0000    10.0000    10.0000    25.0000     0.0019    -0.0024     0.0030    20.7705    41.5355     0.5339     0.2689     0.2434     0.2838    14.4503    14.4511    -0.000
     10   -11.8008     59.876   3051.000 444553.000     60.000    41.5367     0.0149    -9.3441     0.0002     0.0005    30.0000    10.0000    10.0000    30.0000    25.0000    10.0000    10.0000    25.0000     0.0020    -0.0024     0.0030    20.7705    41.5355     0.5429     0.2738     0.2478     0.2880    14.4503    14.4511    -0.000
     11   -12.0001     59.945   2946.000 444553.000     60.000    41.5367     0.0149    -9.3441     0.0002     0.0005    30.0000    10.0000    10.0000    30.0000    25.0000    10.0000    10.0000    25.0000     0.0020    -0.0024     0.0030    20.7704    41.5355     0.5521     0.2788     0.2524     0.2922    14.4503    14.4511    -0.000
     12   -12.2038     59.987   2895.000 444553.000     60.000    41.5367     0.0149    -9.3441     0.0002     0.0005    30.0000    10.0000    10.0000    30.0000    25.0000    10.0000    10.0000    25.0000     0.0019    -0.0024     0.0030    20.7704    41.5355     0.5614     0.2839     0.2570     0.2964    14.4503    14.4511    -0.000
     13   -12.4024     60.070   2924.000 444553.000     60.000    41.5367     0.0149    -9.3441     0.0002     0.0005    30.0000    10.0000    10.0000    30.0000    25.0000    10.0000    10.0000    25.0000     0.0019    -0.0024     0.0031    20.7703    41.5355     0.5705     0.2888     0.2616     0.3006    14.4503    14.4511    -0.000
     14   -12.5992     59.805   2829.000 444553.000     60.000    41.5367     0.0149    -9.3441     0.0002     0.0005    30.0000    10.0000    10.0000    30.0000    25.0000    10.0000    10.0000    25.0000     0.0020    -0.0024     0.0030    20.7703    41.5355     0.5795     0.2938     0.2661     0.3046    14.4503    14.4511    -0.000
     15   -12.8000     60.104   2976.000 444553.000     60.000    41.5367     0.0149    -9.3441     0.0002     0.0005    30.0000    10.0000    10.0000    30.0000    25.0000    10.0000    10.0000    25.0000     0.0020    -0.0024     0.0030    20.7703    41.5355     0.5887     0.2988     0.2707     0.3088    14.4503    14.4511    -0.000
     16   -13.0002     59.878   2812.000 444553.000     60.000    41.5367     0.0149    -9.3441     0.0002     0.0005    30.0000    10.0000    10.0000    30.0000    25.0000    10.0000    10.0000    25.0000     0.0019    -0.0024     0.0030    20.7703    41.5355     0.5979     0.3039     0.2753     0.3129    14.4503    14.4511    -0.000
     17   -13.1999     60.183   2802.000 444553.000     60.000    41.5367     0.0149    -9.3441     0.0002     0.0005    30.0000    10.0000    10.0000    30.0000    25.0000    10.0000    10.0000    25.0000     0.0019    -0.0024     0.0030    20.7702    41.5355     0.6070     0.3089     0.2799     0.3169    14.4503    14.4511    -0.000
     18   -13.4008     60.027   2798.000 444553.000     60.000    41.5367     0.0149    -9.3441     0.0002     0.0005    30.0000    10.0000    10.0000    30.0000    25.0000    10.0000    10.0000    25.0000     0.0019    -0.0024     0.0030    20.7702    41.5355     0.6162     0.3140     0.2845     0.3210    14.4503    14.4511    -0.000
     19   -13.6011     59.926   2852.000 444553.000     60.000    41.5367     0.0149    -9.3441     0.0002     0.0005    30.0000    10.0000    10.0000    30.0000    25.0000    10.0000    10.0000    25.0000     0.0019    -0.0024     0.0030    20.7701    41.5354     0.6254     0.3191     0.2891     0.3250    14.4503    14.4511    -0.000
     20   -13.7973     59.990   2564.000 444553.000     60.000    41.5367     0.0149    -9.3441     0.0002     0.0005    30.0000    10.0000    10.0000    30.0000    25.0000    10.0000    10.0000    25.0000     0.0019    -0.0024     0.0030    20.7701    41.5355     0.6344     0.3240     0.2937     0.3289    14.4503    14.4511    -0.000
     21   -13.9992     59.924   2479.000 444553.000     60.000    41.5367     0.0149    -9.3441     0.0002     0.0005    30.0000    10.0000    10.0000    30.0000    25.0000    10.0000    10.0000    25.0000     0.0019    -0.0024     0.0031    20.7701    41.5354     0.6436     0.3292     0.2984     0.3329    14.4503    14.4511    -0.000
     22   -14.1983     60.092   2628.000 444553.000     60.000    41.5367     0.0149    -9.3441     0.0002     0.0005    30.0000    10.0000    10.0000    30.0000    25.0000    10.0000    10.0000    25.0000     0.0020    -0.0024     0.0030    20.7701    41.5355     0.6527     0.3342     0.3030     0.3369    14.4503    14.4511    -0.000
     23   -14.3998     59.883   2503.000 444553.000     60.000    41.5367     0.0149    -9.3441     0.0002     0.0005    30.0000    10.0000    10.0000    30.0000    25.0000    10.0000    10.0000    25.0000     0.0019    -0.0024     0.0030    20.7701    41.5355     0.6620     0.3394     0.3077     0.3408    14.4503    14.4511    -0.000
     24   -14.6011     59.905   2594.000 444553.000     60.000    41.5367     0.0149    -9.3441     0.0002     0.0005    30.0000    10.0000    10.0000    30.0000    25.0000    10.0000    10.0000    25.0000     0.0020    -0.0024     0.0030    20.7701    41.5354     0.6712     0.3445     0.3124     0.3447    14.4503    14.4511    -0.000
     25   -14.8030     59.950   2476.000 444553.000     60.000    41.5367     0.0149    -9.3441     0.0002     0.0005    30.0000    10.0000    10.0000    30.0000    25.0000    10.0000    10.0000    25.0000     0.0019    -0.0024     0.0030    20.7700    41.5355     0.6804     0.3497     0.3172     0.3486    14.4503    14.4511    -0.000
     26   -14.9975     59.778   2509.000 444553.000     60.000    41.5367     0.0149    -9.3441     0.0002     0.0005    30.0000    10.0000    10.0000    30.0000    25.0000    10.0000    10.0000    25.0000     0.0020    -0.0024     0.0031    20.7700    41.5355     0.6893     0.3547     0.3217     0.3524    14.4503    14.4511    -0.000
     27   -15.2006     59.875   2434.000 444553.000     60.000    41.5367     0.0149    -9.3441     0.0002     0.0005    30.0000    10.0000    10.0000    30.0000    25.0000    10.0000    10.0000    25.0000     0.0020    -0.0024     0.0030    20.7700    41.5355     0.6986     0.3599     0.3265     0.3563    14.4503    14.4511    -0.000
     28   -15.3972     60.035   2500.000 444553.000     60.000    41.5367     0.0149    -9.3441     0.0002     0.0005    30.0000    10.0000    10.0000    30.0000    25.0000    10.0000    10.0000    25.0000     0.0019    -0.0024     0.0030    20.7700    41.5354     0.7075     0.3650     0.3311     0.3600    14.4503    14.4511    -0.000
     29   -15.6035     59.968   2499.000 444553.000     60.000    41.5367     0.0149    -9.3441     0.0002     0.0005    30.0000    10.0000    10.0000    30.0000    25.0000    10.0000    10.0000    25.0000     0.0019    -0.0024     0.0031    20.7699    41.5355     0.7170     0.3703     0.3360     0.3639    14.4503    14.4511    -0.000
     30   -15.7983     60.167   2363.000 444553.000     60.000    41.5367     0.0149    -9.3441     0.0002     0.0005    30.0000    10.0000    10.0000    30.0000    25.0000    10.0000    10.0000    25.0000     0.0019    -0.0024     0.0030    20.7699    41.5355     0.7259     0.3754     0.3406     0.3675    14.4503    14.4511    -0.000
     31   -16.0015     59.911   2394.000 444553.000     60.000    41.5367     0.0149    -9.3441     0.0002     0.0005    30.0000    10.0000    10.0000    30.0000    25.0000    10.0000    10.0000    25.0000     0.0020    -0.0024     0.0030    20.7699    41.5355     0.7351     0.3806     0.3454     0.3713    14.4503    14.4511    -0.000
     32   -16.2028     59.921   2459.000 444553.000     60.000    41.5367     0.0149    -9.3441     0.0002     0.0005    30.0000    10.0000    10.0000    30.0000    25.0000    10.0000    10.0000    25.0000     0.0020    -0.0024     0.0031    20.7699    41.5355     0.7443     0.3858     0.3502     0.3750    14.4503    14.4511    -0.000
     33   -16.3974     60.162   2343.000 444553.000     60.000    41.5367     0.0149    -9.3441     0.0002     0.0005    30.0000    10.0000    10.0000    30.0000    25.0000    10.0000    10.0000    25.0000     0.0019    -0.0024     0.0030    20.7699    41.5355     0.7532     0.3909     0.3549     0.3786    14.4503    14.4511    -0.000
     34   -16.5977     60.035   2417.000 444553.000     60.000    41.5367     0.0149    -9.3441     0.0002     0.0005    30.0000    10.0000    10.0000    30.0000    25.0000    10.0000    10.0000    25.0000     0.0019    -0.0024     0.0030    20.7699    41.5355     0.7623     0.3961     0.3596     0.3823    14.4503    14.4511    -0.000
     35   -16.7975     60.039   2369.000 444553.000     60.000    41.5367     0.0149    -9.3441     0.0002     0.0005    30.0000    10.0000    10.0000    30.0000    25.0000    10.0000    10.0000    25.0000     0.0019    -0.0024     0.0030    20.7699    41.5355     0.7714     0.4013     0.3644     0.3859    14.4503    14.4511    -0.000
     36   -17.0008     59.979   2363.000 444553.000     60.000    41.5367     0.0149    -9.3441     0.0002     0.0005    30.0000    10.0000    10.0000    30.0000    25.0000    10.0000    10.0000    25.0000     0.0019    -0.0024     0.0030    20.7699    41.5355     0.7807     0.4066     0.3693     0.3896    14.4503    14.4511    -0.000
     37   -17.1980     59.995   2218.000 444553.000     60.000    41.5367     0.0149    -9.3441     0.0002     0.0005    30.0000    10.0000    10.0000    30.0000    25.0000    10.0000    10.0000    25.0000     0.0020    -0.0024     0.0031    20.7698    41.5355     0.7897     0.4118     0.3740     0.3931    14.4503    14.4511    -0.000
     38   -17.4002     60.012   2219.000 444553.000     60.000    41.5367     0.0149    -9.3441     0.0002     0.0005    30.0000    10.0000    10.0000    30.0000    25.0000    10.0000    10.0000    25.0000     0.0020    -0.0024     0.0030    20.7698    41.5355     0.7989     0.4171     0.3789     0.3967    14.4503    14.4511    -0.000
     39   -17.5986     60.100   2181.000 444553.000     60.000    41.5367     0.0149    -9.3441     0.0002     0.0005    30.0000    10.0000    10.0000    30.0000    25.0000    10.0000    10.0000    25.0000     0.0020    -0.0024     0.0030    20.7698    41.5355     0.8079     0.4223     0.3836     0.4002    14.4503    14.4511    -0.000
     40   -17.8013     60.010   2173.000 444553.000     60.000    41.5367     0.0149    -9.3441     0.0002     0.0005    30.0000    10.0000    10.0000    30.0000    25.0000    10.0000    10.0000    25.0000     0.0020    -0.0024     0.0030    20.7698    41.5355     0.8172     0.4277     0.3885     0.4037    14.4503    14.4511    -0.000
     41   -18.0033     59.921   2062.000 444553.000     60.000    41.5367     0.0149    -9.3441     0.0002     0.0005    30.0000    10.0000    10.0000    30.0000    25.0000    10.0000    10.0000    25.0000     0.0020    -0.0024     0.0030    20.7698    41.5355     0.8264     0.4330     0.3934     0.4073    14.4503    14.4511    -0.000
     42   -18.2029     59.875   2228.000 444553.000     60.000    41.5367     0.0149    -9.3441     0.0002     0.0005    30.0000    10.0000    10.0000    30.0000    25.0000    10.0000    10.0000    25.0000     0.0019    -0.0024     0.0030    20.7698    41.5355     0.8355     0.4382     0.3982     0.4107    14.4503    14.4511    -0.000
     43   -18.4016     59.922   2086.000 444553.000     60.000    41.5367     0.0149    -9.3441     0.0002     0.0005    30.0000    10.0000    10.0000    30.0000    25.0000    10.0000    10.0000    25.0000     0.0020    -0.0024     0.0030    20.7698    41.5355     0.8445     0.4435     0.4031     0.4141    14.4503    14.4511    -0.000
     44   -18.5974     60.032   2121.000 444553.000     60.000    41.5367     0.0149    -9.3441     0.0002     0.0005    30.0000    10.0000    10.0000    30.0000    25.0000    10.0000    10.0000    25.0000     0.0019    -0.0024     0.0031    20.7698    41.5355     0.8534     0.4487     0.4078     0.4174    14.4503    14.4511    -0.000
     45   -18.7995     59.880   2088.000 444553.000     60.000    41.5367     0.0149    -9.3441     0.0002     0.0005    30.0000    10.0000    10.0000    30.0000    25.0000    10.0000    10.0000    25.0000     0.0019    -0.0024     0.0030    20.7698    41.5355     0.8626     0.4540     0.4127     0.4209    14.4503    14.4511    -0.000
     46   -18.9995     59.910   2096.000 444553.000     60.000    41.5367     0.0149    -9.3441     0.0002     0.0005    30.0000    10.0000    10.0000    30.0000    25.0000    10.0000    10.0000    25.0000     0.0020    -0.0024     0.0030    20.7698    41.5355     0.8717     0.4593     0.4176     0.4242    14.4503    14.4511    -0.000
     47   -19.1990     59.840   2026.000 444553.000     60.000    41.5367     0.0149    -9.3441     0.0002     0.0005    30.0000    10.0000    10.0000    30.0000    25.0000    10.0000    10.0000    25.0000     0.0020    -0.0024     0.0031    20.7698    41.5355     0.8808     0.4647     0.4225     0.4275    14.4503    14.4511    -0.000
     48   -19.3996     59.923   1989.000 444553.000     60.000    41.5367     0.0149    -9.3441     0.0002     0.0005    30.0000    10.0000    10.0000    30.0000    25.0000    10.0000    10.0000    25.0000     0.0020    -0.0024     0.0030    20.7698    41.5355     0.8899     0.4700     0.4274     0.4308    14.4503    14.4511    -0.000
     49   -19.6005     59.728   1960.000 444553.000     60.000    41.5367     0.0149    -9.3441     0.0002     0.0005    30.0000    10.0000    10.0000    30.0000    25.0000    10.0000    10.0000    25.0000     0.0020    -0.0024     0.0030    20.7697    41.5355     0.8990     0.4754     0.4323     0.4341    14.4503    14.4511    -0.000
     50   -19.8026     60.097   1987.000 444553.000     60.000    41.5367     0.0149    -9.3441     0.0002     0.0005    30.0000    10.0000    10.0000    30.0000    25.0000    10.0000    10.0000    25.0000     0.0019    -0.0024     0.0030    20.7698    41.5355     0.9082     0.4808     0.4373     0.4374    14.4503    14.4511    -0.000
     51   -19.9994     60.017   2083.000 444553.000     60.000    41.5367     0.0149    -9.3441     0.0002     0.0005    30.0000    10.0000    10.0000    30.0000    25.0000    10.0000    10.0000    25.0000     0.0019    -0.0024     0.0031    20.7697    41.5355     0.9171     0.4860     0.4421     0.4406    14.4503    14.4511    -0.000
     52   -20.1994     59.863   2073.000 444553.000     60.000    41.5367     0.0149    -9.3441     0.0002     0.0005    30.0000    10.0000    10.0000    30.0000    25.0000    10.0000    10.0000    25.0000     0.0020    -0.0024     0.0030    20.7697    41.5355     0.9262     0.4914     0.4470     0.4438    14.4503    14.4511    -0.000
     53   -20.3961     59.933   1947.000 444553.000     60.000    41.5367     0.0149    -9.3441     0.0002     0.0005    30.0000    10.0000    10.0000    30.0000    25.0000    10.0000    10.0000    25.0000     0.0020    -0.0024     0.0030    20.7697    41.5355     0.9351     0.4967     0.4519     0.4469    14.4503    14.4511    -0.000
     54   -20.5983     60.119   1961.000 444553.000     60.000    41.5367     0.0149    -9.3441     0.0002     0.0005    30.0000    10.0000    10.0000    30.0000    25.0000    10.0000    10.0000    25.0000     0.0019    -0.0024     0.0030    20.7697    41.5355     0.9443     0.5021     0.4569     0.4501    14.4503    14.4511    -0.000
