# scan = 250
# date = 8/14/2024
# time = 1:01:37 PM
# proposal = 32912
# experiment = Quantum Phase Transition in Transverse Field Ising Ferromagnet HoV6Sn6
# experiment_number = 1031
# command = scanrel s1 1 -1 0.1
# builtin_command = scan s1 @(s1)+1 @(s1)+-1 0.100000
# users = Aashish Sapkota, Benjamin Ueland, Fei Li, Rob McQueeney, Tianxiong Han
# local_contact = Wei Tian, Bing Li
# scan_title = OP while warming (1 0 0) H = -0 T, T = 1.91147 K
# monochromator = PG002
# analyzer = Pg002
# sense = +-+
# collimation = 40-40-40-80
# samplename = HoV6Sn6
# sampletype = crystal
# samplemosaic = 30.000000
# latticeconstants = 5.520013,5.520013,9.152013,90.000000,90.000000,120.000000
# ubmatrix = 0.015667,0.005926,0.108953,0.208596,0.104928,-0.008180,-0.000560,0.180868,0.001176
# mode = 0
# plane_normal = -0.010528,0.003477,0.999939
# ubconf = UB12Aug2024_54830PM.ini
# preset_type = normal 
# preset_channel = time
# preset_value = 10.000000
# def_x = s1
# def_y = detector
# col_headers = 
#   Pt.         s1       time   detector    monitor        mcu         m2      mag_i         s2        sgl        sgu   slitb_bt   slitb_lf   slitb_rt   slitb_tp   slita_bt   slita_lf   slita_rt   slita_tp        stl        stu         a1         a2          q          h          k          l         ei         ef          e        vti       temp     temp_2         lt         ht      1kpot  sorb_temp       sorb  sample_ht persistent_field
      1   -99.1144     10.000     43.000 393709.000     16.627    41.5367     0.0001   -28.8143     0.6032     0.1990    22.0000     7.0000     8.0000    22.0000    23.0000     3.0000     7.0000    23.0000    -3.0005     0.0010    20.7692    41.5370     1.3141     0.9997     0.0000     0.0333    14.4503    14.4501     0.0002     1.6860     1.0000     0.0000     1.9688     1.9183     1.8803    34.9457    35.0000     2.2000    -0.000
      2   -99.2144     10.000     38.000 393583.000     16.621    41.5367     0.0000   -28.8143     0.6032     0.1990    22.0000     7.0000     8.0000    22.0000    23.0000     3.0000     7.0000    23.0000    -3.0005     0.0010    20.7692    41.5370     1.3141     0.9997     0.0000     0.0300    14.4503    14.4501     0.0002     1.6861     1.0000     0.0000     1.9727     1.9221     1.8832    35.0454    35.0000     2.2000    -0.000
      3   -99.3144     10.000     39.000 393695.000     16.626    41.5367    -0.0001   -28.8143     0.6032     0.1990    22.0000     7.0000     8.0000    22.0000    23.0000     3.0000     7.0000    23.0000    -3.0005     0.0010    20.7692    41.5370     1.3141     0.9997     0.0000     0.0267    14.4503    14.4501     0.0002     1.6861     1.0000     0.0000     1.9743     1.9237     1.8845    35.0671    35.0000     2.2000    -0.000
      4   -99.4144     10.000     46.000 395034.000     16.682    41.5367    -0.0000   -28.8143     0.6032     0.1990    22.0000     7.0000     8.0000    22.0000    23.0000     3.0000     7.0000    23.0000    -3.0005     0.0010    20.7692    41.5370     1.3141     0.9997     0.0000     0.0233    14.4503    14.4501     0.0002     1.6862     1.0000     0.0000     1.9763     1.9258     1.8862    34.9809    35.0000     2.2000    -0.000
      5   -99.5144     10.000     54.000 392690.000     16.583    41.5367     0.0000   -28.8143     0.6032     0.1990    22.0000     7.0000     8.0000    22.0000    23.0000     3.0000     7.0000    23.0000    -3.0005     0.0010    20.7692    41.5370     1.3141     0.9998     0.0000     0.0200    14.4503    14.4501     0.0002     1.6862     1.0000     0.0000     1.9819     1.9311     1.8905    34.9237    35.0000     2.2000    -0.000
      6   -99.6144     10.000     59.000 393774.000     16.629    41.5367    -0.0000   -28.8143     0.6032     0.1990    22.0000     7.0000     8.0000    22.0000    23.0000     3.0000     7.0000    23.0000    -3.0005     0.0010    20.7692    41.5370     1.3141     0.9998     0.0000     0.0166    14.4503    14.4501     0.0002     1.6863     1.0000     0.0000     1.9873     1.9363     1.8949    34.9987    35.0000     2.2000    -0.000
      7   -99.7144     10.000     85.000 393735.000     16.628    41.5367     0.0000   -28.8143     0.6032     0.1990    22.0000     7.0000     8.0000    22.0000    23.0000     3.0000     7.0000    23.0000    -3.0005     0.0010    20.7692    41.5370     1.3141     0.9998     0.0000     0.0133    14.4503    14.4501     0.0002     1.6864     1.0000     0.0000     1.9899     1.9390     1.8967    35.0750    35.0000     2.2000    -0.000
      8   -99.8144     10.000    296.000 394591.000     16.664    41.5367    -0.0000   -28.8143     0.6032     0.1990    22.0000     7.0000     8.0000    22.0000    23.0000     3.0000     7.0000    23.0000    -3.0005     0.0010    20.7692    41.5371     1.3141     0.9998     0.0000     0.0100    14.4503    14.4500     0.0002     1.6864     1.0000     0.0000     1.9915     1.9404     1.8980    35.0341    35.0000     2.2000    -0.000
      9   -99.9144     10.000    958.000 394742.000     16.670    41.5367     0.0000   -28.8143     0.6032     0.1990    22.0000     7.0000     8.0000    22.0000    23.0000     3.0000     7.0000    23.0000    -3.0005     0.0010    20.7692    41.5370     1.3141     0.9998     0.0000     0.0066    14.4503    14.4501     0.0002     1.6865     1.0000     0.0000     1.9951     1.9439     1.9006    34.9437    35.0000     2.2000    -0.000
     10  -100.0144     10.000   2014.000 393249.000     16.607    41.5367     0.0001   -28.8143     0.6032     0.1990    22.0000     7.0000     8.0000    22.0000    23.0000     3.0000     7.0000    23.0000    -3.0005     0.0010    20.7692    41.5370     1.3141     0.9998     0.0000     0.0033    14.4503    14.4501     0.0002     1.6865     1.0000     0.0000     2.0006     1.9496     1.9053    34.9364    35.0000     2.2000    -0.000
     11  -100.1144     10.000   2655.000 394957.000     16.679    41.5367     0.0001   -28.8143     0.6032     0.1990    22.0000     7.0000     8.0000    22.0000    23.0000     3.0000     7.0000    23.0000    -3.0005     0.0010    20.7692    41.5370     1.3141     0.9998     0.0000    -0.0001    14.4503    14.4501     0.0002     1.6866     1.0000     0.0000     2.0054     1.9542     1.9090    35.0290    35.0000     2.2000    -0.000
     12  -100.2144     10.000   2118.000 393030.000     16.598    41.5367     0.0000   -28.8143     0.6032     0.1990    22.0000     7.0000     8.0000    22.0000    23.0000     3.0000     7.0000    23.0000    -3.0005     0.0010    20.7692    41.5370     1.3141     0.9998     0.0000    -0.0034    14.4503    14.4501     0.0002     1.6866     1.0000     0.0000     2.0070     1.9559     1.9110    35.0692    35.0000     2.2000    -0.000
     13  -100.3144     10.000   1055.000 395482.000     16.701    41.5367    -0.0000   -28.8143     0.6032     0.1990    22.0000     7.0000     8.0000    22.0000    23.0000     3.0000     7.0000    23.0000    -3.0005     0.0010    20.7692    41.5370     1.3141     0.9998     0.0000    -0.0067    14.4503    14.4501     0.0002     1.6867     1.0000     0.0000     2.0091     1.9582     1.9124    34.9901    35.0000     2.2000    -0.000
     14  -100.4144     10.000    303.000 394093.000     16.643    41.5367    -0.0000   -28.8143     0.6032     0.1990    22.0000     7.0000     8.0000    22.0000    23.0000     3.0000     7.0000    23.0000    -3.0005     0.0010    20.7692    41.5370     1.3141     0.9998     0.0000    -0.0101    14.4503    14.4501     0.0002     1.6868     1.0000     0.0000     2.0138     1.9631     1.9161    34.9239    35.0000     2.2000    -0.000
     15  -100.5144     10.000     89.000 395520.000     16.703    41.5367    -0.0001   -28.8143     0.6032     0.1990    22.0000     7.0000     8.0000    22.0000    23.0000     3.0000     7.0000    23.0000    -3.0005     0.0010    20.7692    41.5370     1.3141     0.9998     0.0000    -0.0134    14.4503    14.4501     0.0002     1.6868     1.0000     0.0000     2.0200     1.9688     1.9208    34.9749    35.0000     2.2000    -0.000
     16  -100.6144     10.000     48.000 395062.000     16.684    41.5367    -0.0000   -28.8143     0.6032     0.1990    22.0000     7.0000     8.0000    22.0000    23.0000     3.0000     7.0000    23.0000    -3.0005     0.0010    20.7692    41.5370     1.3141     0.9998     0.0000    -0.0168    14.4503    14.4501     0.0002     1.6869     1.0000     0.0000     2.0239     1.9724     1.9234    35.0708    35.0000     2.2000    -0.000
     17  -100.7144     10.000     47.000 396206.000     16.732    41.5367    -0.0000   -28.8143     0.6032     0.1990    22.0000     7.0000     8.0000    22.0000    23.0000     3.0000     7.0000    23.0000    -3.0005     0.0010    20.7692    41.5370     1.3141     0.9998     0.0000    -0.0201    14.4503    14.4501     0.0002     1.6869     1.0000     0.0000     2.0255     1.9739     1.9243    35.0095    35.0000     2.2000    -0.000
     18  -100.8144     10.000     46.000 393978.000     16.638    41.5367     0.0001   -28.8143     0.6032     0.1990    22.0000     7.0000     8.0000    22.0000    23.0000     3.0000     7.0000    23.0000    -3.0005     0.0010    20.7692    41.5370     1.3141     0.9997     0.0000    -0.0234    14.4503    14.4501     0.0002     1.6870     1.0000     0.0000     2.0299     1.9782     1.9275    34.9309    35.0000     2.2000    -0.000
     19  -100.9144     10.000     38.000 394741.000     16.670    41.5367    -0.0000   -28.8143     0.6032     0.1990    22.0000     7.0000     8.0000    22.0000    23.0000     3.0000     7.0000    23.0000    -3.0005     0.0010    20.7692    41.5370     1.3141     0.9997     0.0000    -0.0268    14.4503    14.4501     0.0002     1.6870     1.0000     0.0000     2.0365     1.9841     1.9325    34.9532    35.0000     2.2000    -0.000
     20  -101.0144     10.000     39.000 395013.000     16.682    41.5367     0.0000   -28.8143     0.6032     0.1990    22.0000     7.0000     8.0000    22.0000    23.0000     3.0000     7.0000    23.0000    -3.0005     0.0010    20.7692    41.5370     1.3141     0.9997     0.0000    -0.0301    14.4503    14.4501     0.0002     1.6872     1.0000     0.0000     2.0406     1.9883     1.9352    35.0546    35.0000     2.2000    -0.000
     21  -101.1144     10.000     41.000 395458.000     16.700    41.5367     0.0001   -28.8143     0.6032     0.1990    22.0000     7.0000     8.0000    22.0000    23.0000     3.0000     7.0000    23.0000    -3.0005     0.0010    20.7692    41.5370     1.3141     0.9997     0.0000    -0.0335    14.4503    14.4501     0.0002     1.6872     1.0000     0.0000     2.0427     1.9904     1.9371    35.0586    35.0000     2.2000    -0.000
# Sum of Counts = 10111
# Center of Mass = -100.116566+/-1.408071
# Full Width Half-Maximum = 0.448023+/-0.553497
# 1:05:26 PM  8/14/2024   scan completed.
