# scan = 399
# date = 8/16/2024
# time = 6:53:15 PM
# proposal = 32912
# experiment = Quantum Phase Transition in Transverse Field Ising Ferromagnet HoV6Sn6
# experiment_number = 1031
# command = scanrel s1 1 -1 0.1
# builtin_command = scan s1 @(s1)+1 @(s1)+-1 0.100000
# users = Aashish Sapkota, Benjamin Ueland, Fei Li, Rob McQueeney, Tianxiong Han
# local_contact = Wei Tian, Bing Li
# scan_title = OP on Hc (2 0 0) H = 2 T, T = 1.74398 K
# monochromator = PG002
# analyzer = Pg002
# sense = +-+
# collimation = 40-40-40-80
# samplename = HoV6Sn6
# sampletype = crystal
# samplemosaic = 30.000000
# latticeconstants = 5.520013,5.520013,9.152013,90.000000,90.000000,120.000000
# ubmatrix = 0.015667,0.005926,0.108953,0.208596,0.104928,-0.008180,-0.000560,0.180868,0.001176
# mode = 0
# plane_normal = -0.010528,0.003477,0.999939
# ubconf = UB12Aug2024_54830PM.ini
# preset_type = normal 
# preset_channel = time
# preset_value = 5.000000
# def_x = s1
# def_y = detector
# col_headers = 
#   Pt.         s1       time   detector    monitor        mcu         m2      mag_i         s2        sgl        sgu   slitb_bt   slitb_lf   slitb_rt   slitb_tp   slita_bt   slita_lf   slita_rt   slita_tp        stl        stu         a1         a2          q          h          k          l         ei         ef          e        vti       temp     temp_2         lt         ht      1kpot  sorb_temp       sorb  sample_ht persistent_field
      1  -114.5534      5.000     12.000 198542.000      8.385    41.5367    -0.0000   -59.6975     0.6032     0.1990    22.0000     7.0000     8.0000    22.0000    23.0000     3.0000     7.0000    23.0000    -3.0005     0.0010    20.7695    41.5442     2.6285     1.9995     0.0000     0.0674    14.4503    14.4453     0.0050     1.6326     1.0000     0.0000     1.7816     1.7454     1.7201    35.0747    35.0000     3.0000     2.000
      2  -114.6534      5.000     12.000 197895.000      8.357    41.5367     0.0001   -59.6975     0.6032     0.1990    22.0000     7.0000     8.0000    22.0000    23.0000     3.0000     7.0000    23.0000    -3.0005     0.0010    20.7694    41.5442     2.6285     1.9996     0.0000     0.0607    14.4503    14.4453     0.0050     1.6329     1.0000     0.0000     1.7834     1.7472     1.7210    34.9362    35.0000     3.0000     2.000
      3  -114.7534      5.000     15.000 198619.000      8.388    41.5367     0.0001   -59.6975     0.6032     0.1990    22.0000     7.0000     8.0000    22.0000    23.0000     3.0000     7.0000    23.0000    -3.0005     0.0010    20.7694    41.5442     2.6285     1.9996     0.0000     0.0540    14.4503    14.4453     0.0050     1.6332     1.0000     0.0000     1.7814     1.7455     1.7198    34.9717    35.0000     3.0000     2.000
      4  -114.8534      5.000     16.000 199006.000      8.404    41.5367     0.0000   -59.6975     0.6032     0.1990    22.0000     7.0000     8.0000    22.0000    23.0000     3.0000     7.0000    23.0000    -3.0005     0.0010    20.7694    41.5442     2.6285     1.9997     0.0000     0.0473    14.4503    14.4453     0.0050     1.6335     1.0000     0.0000     1.7860     1.7500     1.7230    35.0742    35.0000     3.0000     2.000
      5  -114.9534      5.000     18.000 198321.000      8.375    41.5367     0.0001   -59.6975     0.6032     0.1990    22.0000     7.0000     8.0000    22.0000    23.0000     3.0000     7.0000    23.0000    -3.0005     0.0010    20.7694    41.5442     2.6285     1.9997     0.0000     0.0407    14.4503    14.4453     0.0050     1.6339     1.0000     0.0000     1.7918     1.7557     1.7269    35.0245    35.0000     3.0000     2.000
      6  -115.0534      5.000     11.000 199023.000      8.405    41.5367     0.0001   -59.6975     0.6032     0.1990    22.0000     7.0000     8.0000    22.0000    23.0000     3.0000     7.0000    23.0000    -3.0005     0.0010    20.7694    41.5442     2.6285     1.9997     0.0000     0.0340    14.4503    14.4453     0.0050     1.6349     1.0000     0.0000     1.7921     1.7562     1.7269    34.9143    35.0000     3.0000     2.000
      7  -115.1534      5.000     16.000 198118.000      8.367    41.5367    -0.0000   -59.6975     0.6032     0.1990    22.0000     7.0000     8.0000    22.0000    23.0000     3.0000     7.0000    23.0000    -3.0005     0.0010    20.7694    41.5442     2.6285     1.9998     0.0000     0.0273    14.4503    14.4453     0.0050     1.6353     1.0000     0.0000     1.7952     1.7590     1.7281    35.0208    35.0000     3.0000     2.000
      8  -115.2534      5.000     63.000 197580.000      8.344    41.5367    -0.0000   -59.6975     0.6032     0.1990    22.0000     7.0000     8.0000    22.0000    23.0000     3.0000     7.0000    23.0000    -3.0005     0.0010    20.7694    41.5442     2.6285     1.9998     0.0000     0.0206    14.4503    14.4453     0.0050     1.6357     1.0000     0.0000     1.8034     1.7674     1.7332    35.0787    35.0000     3.0000     2.000
      9  -115.3534      5.000    192.000 198706.000      8.391    41.5367     0.0001   -59.6975     0.6032     0.1990    22.0000     7.0000     8.0000    22.0000    23.0000     3.0000     7.0000    23.0000    -3.0005     0.0010    20.7694    41.5442     2.6285     1.9998     0.0000     0.0139    14.4503    14.4453     0.0050     1.6361     1.0000     0.0000     1.8086     1.7724     1.7358    34.9470    35.0000     3.0000     2.000
     10  -115.4534      5.000    373.000 199413.000      8.421    41.5367    -0.0000   -59.6975     0.6032     0.1990    22.0000     7.0000     8.0000    22.0000    23.0000     3.0000     7.0000    23.0000    -3.0005     0.0010    20.7694    41.5442     2.6285     1.9998     0.0000     0.0073    14.4503    14.4453     0.0050     1.6364     1.0000     0.0000     1.8093     1.7733     1.7361    34.9494    35.0000     3.0000     2.000
     11  -115.5534      5.000    452.000 198565.000      8.385    41.5367    -0.0000   -59.6975     0.6032     0.1990    22.0000     7.0000     8.0000    22.0000    23.0000     3.0000     7.0000    23.0000    -3.0005     0.0010    20.7694    41.5442     2.6285     1.9998     0.0000     0.0006    14.4503    14.4453     0.0050     1.6368     1.0000     0.0000     1.8157     1.7799     1.7405    35.0658    35.0000     3.0000     2.000
     12  -115.6534      5.000    327.000 198914.000      8.400    41.5367    -0.0000   -59.6975     0.6032     0.1990    22.0000     7.0000     8.0000    22.0000    23.0000     3.0000     7.0000    23.0000    -3.0005     0.0010    20.7694    41.5442     2.6285     1.9998     0.0000    -0.0061    14.4503    14.4453     0.0050     1.6372     1.0000     0.0000     1.8239     1.7878     1.7456    35.0295    35.0000     3.0000     2.000
     13  -115.7534      5.000    146.000 198827.000      8.397    41.5367     0.0001   -59.6975     0.6032     0.1990    22.0000     7.0000     8.0000    22.0000    23.0000     3.0000     7.0000    23.0000    -3.0005     0.0010    20.7694    41.5442     2.6285     1.9998     0.0000    -0.0128    14.4503    14.4453     0.0050     1.6376     1.0000     0.0000     1.8279     1.7915     1.7473    34.9185    35.0000     3.0000     2.000
     14  -115.8534      5.000     41.000 198045.000      8.364    41.5367    -0.0000   -59.6975     0.6032     0.1990    22.0000     7.0000     8.0000    22.0000    23.0000     3.0000     7.0000    23.0000    -3.0005     0.0010    20.7694    41.5442     2.6285     1.9998     0.0000    -0.0195    14.4503    14.4453     0.0050     1.6380     1.0000     0.0000     1.8321     1.7950     1.7498    35.0121    35.0000     3.0000     2.000
     15  -115.9534      5.000     15.000 198035.000      8.363    41.5367    -0.0000   -59.6975     0.6032     0.1990    22.0000     7.0000     8.0000    22.0000    23.0000     3.0000     7.0000    23.0000    -3.0005     0.0010    20.7694    41.5442     2.6285     1.9998     0.0000    -0.0262    14.4503    14.4453     0.0050     1.6384     1.0000     0.0000     1.8410     1.8028     1.7557    35.0779    35.0000     3.0000     2.000
     16  -116.0534      5.000     13.000 199347.000      8.419    41.5367     0.0001   -59.6975     0.6032     0.1990    22.0000     7.0000     8.0000    22.0000    23.0000     3.0000     7.0000    23.0000    -3.0005     0.0010    20.7694    41.5442     2.6285     1.9997     0.0000    -0.0328    14.4503    14.4453     0.0050     1.6395     1.0000     0.0000     1.8482     1.8090     1.7601    34.9582    35.0000     3.0000     2.000
     17  -116.1534      5.000      5.000 196658.000      8.305    41.5367    -0.0000   -59.6975     0.6032     0.1990    22.0000     7.0000     8.0000    22.0000    23.0000     3.0000     7.0000    23.0000    -3.0005     0.0010    20.7694    41.5442     2.6285     1.9997     0.0000    -0.0395    14.4503    14.4453     0.0050     1.6400     1.0000     0.0000     1.8510     1.8120     1.7619    34.9440    35.0000     3.0000     2.000
     18  -116.2534      5.000      7.000 198862.000      8.398    41.5367    -0.0000   -59.6975     0.6032     0.1990    22.0000     7.0000     8.0000    22.0000    23.0000     3.0000     7.0000    23.0000    -3.0005     0.0010    20.7694    41.5442     2.6285     1.9997     0.0000    -0.0462    14.4503    14.4453     0.0050     1.6405     1.0000     0.0000     1.8587     1.8184     1.7669    35.0384    35.0000     3.0000     2.000
     19  -116.3534      5.000     12.000 198473.000      8.382    41.5367     0.0001   -59.6975     0.6032     0.1990    22.0000     7.0000     8.0000    22.0000    23.0000     3.0000     7.0000    23.0000    -3.0005     0.0010    20.7694    41.5442     2.6285     1.9996     0.0000    -0.0529    14.4503    14.4453     0.0050     1.6410     1.0000     0.0000     1.8676     1.8263     1.7736    35.0557    35.0000     3.0000     2.000
     20  -116.4534      5.000     10.000 198691.000      8.391    41.5367    -0.0000   -59.6975     0.6032     0.1990    22.0000     7.0000     8.0000    22.0000    23.0000     3.0000     7.0000    23.0000    -3.0005     0.0010    20.7694    41.5442     2.6285     1.9996     0.0000    -0.0596    14.4503    14.4453     0.0050     1.6413     1.0000     0.0000     1.8732     1.8313     1.7773    34.9325    35.0000     3.0000     2.000
     21  -116.5534      5.000     12.000 200208.000      8.455    41.5367    -0.0000   -59.6975     0.6032     0.1990    22.0000     7.0000     8.0000    22.0000    23.0000     3.0000     7.0000    23.0000    -3.0005     0.0010    20.7694    41.5442     2.6285     1.9995     0.0000    -0.0662    14.4503    14.4453     0.0050     1.6417     1.0000     0.0000     1.8781     1.8361     1.7809    34.9545    35.0000     3.0000     2.000
# Sum of Counts = 1768
# Center of Mass = -115.531850+/-3.885762
# Full Width Half-Maximum = 0.518152+/-1.353434
# 6:55:33 PM  8/16/2024   scan completed.
