# scan = 373
# date = 8/16/2024
# time = 4:15:26 PM
# proposal = 32912
# experiment = Quantum Phase Transition in Transverse Field Ising Ferromagnet HoV6Sn6
# experiment_number = 1031
# command = scanrel s1 1 -1 0.1
# builtin_command = scan s1 @(s1)+1 @(s1)+-1 0.100000
# users = Aashish Sapkota, Benjamin Ueland, Fei Li, Rob McQueeney, Tianxiong Han
# local_contact = Wei Tian, Bing Li
# scan_title = OP on Hc (2 0 0) H = 1.8 T, T = 1.07536 K
# monochromator = PG002
# analyzer = Pg002
# sense = +-+
# collimation = 40-40-40-80
# samplename = HoV6Sn6
# sampletype = crystal
# samplemosaic = 30.000000
# latticeconstants = 5.520013,5.520013,9.152013,90.000000,90.000000,120.000000
# ubmatrix = 0.015667,0.005926,0.108953,0.208596,0.104928,-0.008180,-0.000560,0.180868,0.001176
# mode = 0
# plane_normal = -0.010528,0.003477,0.999939
# ubconf = UB12Aug2024_54830PM.ini
# preset_type = normal 
# preset_channel = time
# preset_value = 5.000000
# def_x = s1
# def_y = detector
# col_headers = 
#   Pt.         s1       time   detector    monitor        mcu         m2      mag_i         s2        sgl        sgu   slitb_bt   slitb_lf   slitb_rt   slitb_tp   slita_bt   slita_lf   slita_rt   slita_tp        stl        stu         a1         a2          q          h          k          l         ei         ef          e        vti       temp     temp_2         lt         ht      1kpot  sorb_temp       sorb  sample_ht persistent_field
      1  -114.5534      5.000     15.000 197536.000      8.342    41.5367    -0.0000   -59.6976     0.6032     0.1990    22.0000     7.0000     8.0000    22.0000    23.0000     3.0000     7.0000    23.0000    -3.0005     0.0010    20.7683    41.5442     2.6285     1.9995     0.0000     0.0674    14.4503    14.4453     0.0050     1.6512     1.0000     0.0000     1.0770     1.0751     1.6872    21.9374    22.0000     0.0000     1.800
      2  -114.6534      5.000     10.000 198410.000      8.379    41.5367    -0.0000   -59.6976     0.6032     0.1990    22.0000     7.0000     8.0000    22.0000    23.0000     3.0000     7.0000    23.0000    -3.0005     0.0010    20.7682    41.5442     2.6285     1.9996     0.0000     0.0607    14.4503    14.4453     0.0050     1.6498     1.0000     0.0000     1.0775     1.0755     1.6860    21.9765    22.0000     0.0000     1.800
      3  -114.7534      5.000     12.000 198233.000      8.371    41.5367     0.0001   -59.6976     0.6032     0.1990    22.0000     7.0000     8.0000    22.0000    23.0000     3.0000     7.0000    23.0000    -3.0005     0.0010    20.7682    41.5442     2.6285     1.9996     0.0000     0.0540    14.4503    14.4453     0.0050     1.6483     1.0000     0.0000     1.0808     1.0786     1.6846    22.0499    22.0000     0.0000     1.800
      4  -114.8534      5.000     20.000 197923.000      8.358    41.5367     0.0001   -59.6976     0.6032     0.1990    22.0000     7.0000     8.0000    22.0000    23.0000     3.0000     7.0000    23.0000    -3.0005     0.0010    20.7682    41.5442     2.6285     1.9997     0.0000     0.0474    14.4503    14.4453     0.0050     1.6467     1.0000     0.0000     1.0822     1.0800     1.6829    22.0557    22.0000     0.0000     1.800
      5  -114.9534      5.000     21.000 198061.000      8.364    41.5367     0.0001   -59.6976     0.6032     0.1990    22.0000     7.0000     8.0000    22.0000    23.0000     3.0000     7.0000    23.0000    -3.0005     0.0010    20.7683    41.5442     2.6285     1.9997     0.0000     0.0407    14.4503    14.4453     0.0050     1.6454     1.0000     0.0000     1.0814     1.0790     1.6812    21.9685    22.0000     0.0000     1.800
      6  -115.0534      5.000     10.000 198003.000      8.362    41.5367    -0.0000   -59.6976     0.6032     0.1990    22.0000     7.0000     8.0000    22.0000    23.0000     3.0000     7.0000    23.0000    -3.0005     0.0010    20.7682    41.5442     2.6285     1.9997     0.0000     0.0340    14.4503    14.4453     0.0050     1.6440     1.0000     0.0000     1.0791     1.0771     1.6770    21.9673    22.0000     0.0000     1.800
      7  -115.1534      5.000     30.000 196840.000      8.313    41.5367    -0.0000   -59.6976     0.6032     0.1990    22.0000     7.0000     8.0000    22.0000    23.0000     3.0000     7.0000    23.0000    -3.0005     0.0010    20.7682    41.5442     2.6285     1.9998     0.0000     0.0273    14.4503    14.4453     0.0050     1.6426     1.0000     0.0000     1.0831     1.0808     1.6754    22.0550    22.0000     0.0000     1.800
      8  -115.2534      5.000     66.000 198459.000      8.381    41.5367    -0.0000   -59.6976     0.6032     0.1990    22.0000     7.0000     8.0000    22.0000    23.0000     3.0000     7.0000    23.0000    -3.0005     0.0010    20.7682    41.5442     2.6285     1.9998     0.0000     0.0206    14.4503    14.4453     0.0050     1.6412     1.0000     0.0000     1.0833     1.0806     1.6732    21.9876    22.0000     0.0000     1.800
      9  -115.3534      5.000    219.000 198157.000      8.368    41.5367     0.0001   -59.6976     0.6032     0.1990    22.0000     7.0000     8.0000    22.0000    23.0000     3.0000     7.0000    23.0000    -3.0005     0.0010    20.7682    41.5442     2.6285     1.9998     0.0000     0.0139    14.4503    14.4453     0.0050     1.6396     1.0000     0.0000     1.0814     1.0793     1.6708    21.9479    22.0000     0.0000     1.800
     10  -115.4534      5.000    411.000 197953.000      8.360    41.5367     0.0000   -59.6976     0.6032     0.1990    22.0000     7.0000     8.0000    22.0000    23.0000     3.0000     7.0000    23.0000    -3.0005     0.0010    20.7682    41.5442     2.6285     1.9998     0.0000     0.0073    14.4503    14.4453     0.0050     1.6382     1.0000     0.0000     1.0810     1.0789     1.6676    21.9905    22.0000     0.0000     1.800
     11  -115.5534      5.000    460.000 197615.000      8.345    41.5367    -0.0000   -59.6976     0.6032     0.1990    22.0000     7.0000     8.0000    22.0000    23.0000     3.0000     7.0000    23.0000    -3.0005     0.0010    20.7682    41.5442     2.6285     1.9998     0.0000     0.0006    14.4503    14.4453     0.0050     1.6369     1.0000     0.0000     1.0847     1.0822     1.6658    22.0558    22.0000     0.0000     1.800
     12  -115.6534      5.000    332.000 198215.000      8.371    41.5367    -0.0000   -59.6976     0.6032     0.1990    22.0000     7.0000     8.0000    22.0000    23.0000     3.0000     7.0000    23.0000    -3.0005     0.0010    20.7682    41.5442     2.6285     1.9998     0.0000    -0.0061    14.4503    14.4453     0.0050     1.6354     1.0000     0.0000     1.0845     1.0821     1.6653    22.0064    22.0000     0.0000     1.800
     13  -115.7534      5.000    138.000 197973.000      8.360    41.5367    -0.0000   -59.6976     0.6032     0.1990    22.0000     7.0000     8.0000    22.0000    23.0000     3.0000     7.0000    23.0000    -3.0005     0.0010    20.7683    41.5442     2.6285     1.9998     0.0000    -0.0128    14.4503    14.4453     0.0050     1.6345     1.0000     0.0000     1.0835     1.0809     1.6630    21.9635    22.0000     0.0000     1.800
     14  -115.8534      5.000     28.000 197220.000      8.329    41.5367    -0.0000   -59.6976     0.6032     0.1990    22.0000     7.0000     8.0000    22.0000    23.0000     3.0000     7.0000    23.0000    -3.0005     0.0010    20.7682    41.5442     2.6285     1.9998     0.0000    -0.0195    14.4503    14.4453     0.0050     1.6332     1.0000     0.0000     1.0813     1.0790     1.6612    21.9499    22.0000     0.0000     1.800
     15  -115.9534      5.000     14.000 198426.000      8.380    41.5367    -0.0000   -59.6976     0.6032     0.1990    22.0000     7.0000     8.0000    22.0000    23.0000     3.0000     7.0000    23.0000    -3.0005     0.0010    20.7683    41.5442     2.6285     1.9998     0.0000    -0.0262    14.4503    14.4453     0.0050     1.6320     1.0000     0.0000     1.0831     1.0809     1.6583    22.0130    22.0000     0.0000     1.800
     16  -116.0534      5.000     10.000 198119.000      8.367    41.5367     0.0001   -59.6976     0.6032     0.1990    22.0000     7.0000     8.0000    22.0000    23.0000     3.0000     7.0000    23.0000    -3.0005     0.0010    20.7682    41.5442     2.6285     1.9997     0.0000    -0.0328    14.4503    14.4453     0.0050     1.6306     1.0000     0.0000     1.0840     1.0818     1.6576    22.0380    22.0000     0.0000     1.800
     17  -116.1534      5.000     11.000 197053.000      8.322    41.5367    -0.0000   -59.6976     0.6032     0.1990    22.0000     7.0000     8.0000    22.0000    23.0000     3.0000     7.0000    23.0000    -3.0005     0.0010    20.7683    41.5442     2.6285     1.9997     0.0000    -0.0395    14.4503    14.4453     0.0050     1.6295     1.0000     0.0000     1.0859     1.0834     1.6562    22.0460    22.0000     0.0000     1.800
     18  -116.2534      5.000     13.000 197599.000      8.345    41.5367    -0.0000   -59.6976     0.6032     0.1990    22.0000     7.0000     8.0000    22.0000    23.0000     3.0000     7.0000    23.0000    -3.0005     0.0010    20.7682    41.5442     2.6285     1.9997     0.0000    -0.0462    14.4503    14.4453     0.0050     1.6285     1.0000     0.0000     1.0842     1.0816     1.6545    21.9727    22.0000     0.0000     1.800
     19  -116.3534      5.000     12.000 197422.000      8.337    41.5367     0.0001   -59.6976     0.6032     0.1990    22.0000     7.0000     8.0000    22.0000    23.0000     3.0000     7.0000    23.0000    -3.0005     0.0010    20.7682    41.5442     2.6285     1.9996     0.0000    -0.0529    14.4503    14.4453     0.0050     1.6275     1.0000     0.0000     1.0821     1.0800     1.6524    21.9651    22.0000     0.0000     1.800
     20  -116.4534      5.000     14.000 198679.000      8.390    41.5367    -0.0000   -59.6976     0.6032     0.1990    22.0000     7.0000     8.0000    22.0000    23.0000     3.0000     7.0000    23.0000    -3.0005     0.0010    20.7683    41.5442     2.6285     1.9996     0.0000    -0.0596    14.4503    14.4453     0.0050     1.6265     1.0000     0.0000     1.0843     1.0817     1.6505    22.0289    22.0000     0.0000     1.800
     21  -116.5534      5.000     13.000 198532.000      8.384    41.5367    -0.0000   -59.6976     0.6032     0.1990    22.0000     7.0000     8.0000    22.0000    23.0000     3.0000     7.0000    23.0000    -3.0005     0.0010    20.7683    41.5442     2.6285     1.9995     0.0000    -0.0662    14.4503    14.4453     0.0050     1.6257     1.0000     0.0000     1.0862     1.0837     1.6494    22.0505    22.0000     0.0000     1.800
# Sum of Counts = 1859
# Center of Mass = -115.525858+/-3.789266
# Full Width Half-Maximum = 0.531503+/-1.297628
# 4:17:39 PM  8/16/2024   scan completed.
