# scan = 419
# date = 8/16/2024
# time = 9:06:07 PM
# proposal = 32912
# experiment = Quantum Phase Transition in Transverse Field Ising Ferromagnet HoV6Sn6
# experiment_number = 1031
# command = scanrel s1 1 -1 0.1
# builtin_command = scan s1 @(s1)+1 @(s1)+-1 0.100000
# users = Aashish Sapkota, Benjamin Ueland, Fei Li, Rob McQueeney, Tianxiong Han
# local_contact = Wei Tian, Bing Li
# scan_title = OP on Hc (2 0 0) H = 2.2 T, T = 2.01113 K
# monochromator = PG002
# analyzer = Pg002
# sense = +-+
# collimation = 40-40-40-80
# samplename = HoV6Sn6
# sampletype = crystal
# samplemosaic = 30.000000
# latticeconstants = 5.520013,5.520013,9.152013,90.000000,90.000000,120.000000
# ubmatrix = 0.015667,0.005926,0.108953,0.208596,0.104928,-0.008180,-0.000560,0.180868,0.001176
# mode = 0
# plane_normal = -0.010528,0.003477,0.999939
# ubconf = UB12Aug2024_54830PM.ini
# preset_type = normal 
# preset_channel = time
# preset_value = 5.000000
# def_x = s1
# def_y = detector
# col_headers = 
#   Pt.         s1       time   detector    monitor        mcu         m2      mag_i         s2        sgl        sgu   slitb_bt   slitb_lf   slitb_rt   slitb_tp   slita_bt   slita_lf   slita_rt   slita_tp        stl        stu         a1         a2          q          h          k          l         ei         ef          e        vti       temp     temp_2         lt         ht      1kpot  sorb_temp       sorb  sample_ht persistent_field
      1  -114.5534      5.000      5.000 197517.000      8.341    41.5367    -0.0000   -59.6975     0.6032     0.1990    22.0000     7.0000     8.0000    22.0000    23.0000     3.0000     7.0000    23.0000    -3.0005     0.0010    20.7694    41.5442     2.6285     1.9995     0.0000     0.0674    14.4503    14.4453     0.0050     1.6413     1.0000     0.0000     2.0805     2.0319     1.9304    34.9974    35.0000     3.5000     2.200
      2  -114.6534      5.000     14.000 198096.000      8.366    41.5367     0.0001   -59.6975     0.6032     0.1990    22.0000     7.0000     8.0000    22.0000    23.0000     3.0000     7.0000    23.0000    -3.0005     0.0010    20.7694    41.5442     2.6285     1.9996     0.0000     0.0607    14.4503    14.4453     0.0050     1.6418     1.0000     0.0000     2.0956     2.0467     1.9410    35.0522    35.0000     3.5000     2.200
      3  -114.7534      5.000      6.000 198197.000      8.370    41.5367     0.0000   -59.6975     0.6032     0.1990    22.0000     7.0000     8.0000    22.0000    23.0000     3.0000     7.0000    23.0000    -3.0005     0.0010    20.7694    41.5442     2.6285     1.9996     0.0000     0.0540    14.4503    14.4453     0.0050     1.6422     1.0000     0.0000     2.1115     2.0607     1.9519    35.0005    35.0000     3.5000     2.200
      4  -114.8534      5.000     11.000 197958.000      8.360    41.5367    -0.0000   -59.6975     0.6032     0.1990    22.0000     7.0000     8.0000    22.0000    23.0000     3.0000     7.0000    23.0000    -3.0005     0.0010    20.7694    41.5442     2.6285     1.9997     0.0000     0.0473    14.4503    14.4453     0.0050     1.6427     1.0000     0.0000     2.1236     2.0720     1.9606    34.9482    35.0000     3.5000     2.200
      5  -114.9534      5.000     13.000 197778.000      8.352    41.5367    -0.0000   -59.6975     0.6032     0.1990    22.0000     7.0000     8.0000    22.0000    23.0000     3.0000     7.0000    23.0000    -3.0005     0.0010    20.7694    41.5442     2.6285     1.9997     0.0000     0.0407    14.4503    14.4453     0.0050     1.6431     1.0000     0.0000     2.1361     2.0838     1.9699    35.0204    35.0000     3.5000     2.200
      6  -115.0534      5.000     33.000 198210.000      8.370    41.5367    -0.0000   -59.6975     0.6032     0.1990    22.0000     7.0000     8.0000    22.0000    23.0000     3.0000     7.0000    23.0000    -3.0005     0.0010    20.7694    41.5442     2.6285     1.9997     0.0000     0.0340    14.4503    14.4453     0.0050     1.6433     1.0000     0.0000     2.1522     2.0995     1.9807    35.0372    35.0000     3.5000     2.200
      7  -115.1534      5.000     19.000 198456.000      8.381    41.5367    -0.0000   -59.6975     0.6032     0.1990    22.0000     7.0000     8.0000    22.0000    23.0000     3.0000     7.0000    23.0000    -3.0005     0.0010    20.7694    41.5442     2.6285     1.9998     0.0000     0.0273    14.4503    14.4453     0.0050     1.6436     1.0000     0.0000     2.1667     2.1145     1.9911    34.9728    35.0000     3.5000     2.200
      8  -115.2534      5.000     55.000 198874.000      8.399    41.5367    -0.0000   -59.6975     0.6032     0.1990    22.0000     7.0000     8.0000    22.0000    23.0000     3.0000     7.0000    23.0000    -3.0005     0.0010    20.7694    41.5442     2.6285     1.9998     0.0000     0.0206    14.4503    14.4453     0.0050     1.6442     1.0000     0.0000     2.1788     2.1268     2.0002    34.9628    35.0000     3.5000     2.200
      9  -115.3534      5.000    193.000 198200.000      8.370    41.5367    -0.0000   -59.6975     0.6032     0.1990    22.0000     7.0000     8.0000    22.0000    23.0000     3.0000     7.0000    23.0000    -3.0005     0.0010    20.7694    41.5442     2.6285     1.9998     0.0000     0.0139    14.4503    14.4453     0.0050     1.6447     1.0000     0.0000     2.1921     2.1404     2.0104    35.0325    35.0000     3.5000     2.200
     10  -115.4534      5.000    374.000 198598.000      8.387    41.5367     0.0001   -59.6975     0.6032     0.1990    22.0000     7.0000     8.0000    22.0000    23.0000     3.0000     7.0000    23.0000    -3.0005     0.0010    20.7694    41.5442     2.6285     1.9998     0.0000     0.0073    14.4503    14.4453     0.0050     1.6455     1.0000     0.0000     2.2056     2.1543     2.0219    35.0331    35.0000     3.5000     2.200
     11  -115.5534      5.000    456.000 198033.000      8.363    41.5367    -0.0000   -59.6975     0.6032     0.1990    22.0000     7.0000     8.0000    22.0000    23.0000     3.0000     7.0000    23.0000    -3.0005     0.0010    20.7694    41.5442     2.6285     1.9998     0.0000     0.0006    14.4503    14.4453     0.0050     1.6462     1.0000     0.0000     2.2156     2.1650     2.0322    34.9652    35.0000     3.5000     2.200
     12  -115.6534      5.000    329.000 198965.000      8.402    41.5367    -0.0000   -59.6975     0.6032     0.1990    22.0000     7.0000     8.0000    22.0000    23.0000     3.0000     7.0000    23.0000    -3.0005     0.0010    20.7694    41.5442     2.6285     1.9998     0.0000    -0.0061    14.4503    14.4453     0.0050     1.6472     1.0000     0.0000     2.2260     2.1751     2.0407    34.9777    35.0000     3.5000     2.200
     13  -115.7534      5.000    131.000 198244.000      8.372    41.5367    -0.0000   -59.6975     0.6032     0.1990    22.0000     7.0000     8.0000    22.0000    23.0000     3.0000     7.0000    23.0000    -3.0005     0.0010    20.7694    41.5442     2.6285     1.9998     0.0000    -0.0128    14.4503    14.4453     0.0050     1.6483     1.0000     0.0000     2.2392     2.1872     2.0514    35.0294    35.0000     3.5000     2.200
     14  -115.8534      5.000     40.000 198040.000      8.363    41.5367     0.0000   -59.6975     0.6032     0.1990    22.0000     7.0000     8.0000    22.0000    23.0000     3.0000     7.0000    23.0000    -3.0005     0.0010    20.7694    41.5442     2.6285     1.9998     0.0000    -0.0195    14.4503    14.4453     0.0050     1.6494     1.0000     0.0000     2.2512     2.1977     2.0607    35.0126    35.0000     3.5000     2.200
     15  -115.9534      5.000     12.000 198925.000      8.401    41.5367    -0.0000   -59.6975     0.6032     0.1990    22.0000     7.0000     8.0000    22.0000    23.0000     3.0000     7.0000    23.0000    -3.0005     0.0010    20.7694    41.5442     2.6285     1.9998     0.0000    -0.0262    14.4503    14.4453     0.0050     1.6507     1.0000     0.0000     2.2622     2.2073     2.0692    34.9605    35.0000     3.5000     2.200
     16  -116.0534      5.000      8.000 197848.000      8.355    41.5367     0.0001   -59.6975     0.6032     0.1990    22.0000     7.0000     8.0000    22.0000    23.0000     3.0000     7.0000    23.0000    -3.0005     0.0010    20.7694    41.5442     2.6285     1.9997     0.0000    -0.0328    14.4503    14.4453     0.0050     1.6521     1.0000     0.0000     2.2718     2.2165     2.0774    34.9836    35.0000     3.5000     2.200
     17  -116.1534      5.000     14.000 198827.000      8.397    41.5367    -0.0000   -59.6975     0.6032     0.1990    22.0000     7.0000     8.0000    22.0000    23.0000     3.0000     7.0000    23.0000    -3.0005     0.0010    20.7694    41.5442     2.6285     1.9997     0.0000    -0.0395    14.4503    14.4453     0.0050     1.6535     1.0000     0.0000     2.2830     2.2263     2.0860    35.0347    35.0000     3.5000     2.200
     18  -116.2534      5.000      7.000 198173.000      8.369    41.5367    -0.0000   -59.6975     0.6032     0.1990    22.0000     7.0000     8.0000    22.0000    23.0000     3.0000     7.0000    23.0000    -3.0005     0.0010    20.7694    41.5442     2.6285     1.9997     0.0000    -0.0462    14.4503    14.4453     0.0050     1.6549     1.0000     0.0000     2.2830     2.2261     2.0937    34.9969    35.0000     3.5000     2.200
     19  -116.3534      5.000     14.000 198737.000      8.393    41.5367     0.0000   -59.6975     0.6032     0.1990    22.0000     7.0000     8.0000    22.0000    23.0000     3.0000     7.0000    23.0000    -3.0005     0.0010    20.7694    41.5442     2.6285     1.9996     0.0000    -0.0529    14.4503    14.4453     0.0050     1.6563     1.0000     0.0000     2.2834     2.2266     2.1002    34.9624    35.0000     3.5000     2.200
     20  -116.4534      5.000     11.000 198931.000      8.401    41.5367     0.0000   -59.6975     0.6032     0.1990    22.0000     7.0000     8.0000    22.0000    23.0000     3.0000     7.0000    23.0000    -3.0005     0.0010    20.7694    41.5442     2.6285     1.9996     0.0000    -0.0596    14.4503    14.4453     0.0050     1.6578     1.0000     0.0000     2.2908     2.2335     2.1079    35.0053    35.0000     3.5000     2.200
     21  -116.5534      5.000     11.000 197753.000      8.351    41.5367    -0.0000   -59.6975     0.6032     0.1990    22.0000     7.0000     8.0000    22.0000    23.0000     3.0000     7.0000    23.0000    -3.0005     0.0010    20.7694    41.5442     2.6285     1.9995     0.0000    -0.0662    14.4503    14.4453     0.0050     1.6592     1.0000     0.0000     2.2999     2.2425     2.1157    35.0325    35.0000     3.5000     2.200
# Sum of Counts = 1756
# Center of Mass = -115.536771+/-3.899182
# Full Width Half-Maximum = 0.502510+/-1.378682
# 9:08:25 PM  8/16/2024   scan completed.
