# scan = 421
# date = 8/16/2024
# time = 9:14:17 PM
# proposal = 32912
# experiment = Quantum Phase Transition in Transverse Field Ising Ferromagnet HoV6Sn6
# experiment_number = 1031
# command = scanrel s1 1 -1 0.1
# builtin_command = scan s1 @(s1)+1 @(s1)+-1 0.100000
# users = Aashish Sapkota, Benjamin Ueland, Fei Li, Rob McQueeney, Tianxiong Han
# local_contact = Wei Tian, Bing Li
# scan_title = OP on Hc (2 0 0) H = 2.2 T, T = 4.70722 K
# monochromator = PG002
# analyzer = Pg002
# sense = +-+
# collimation = 40-40-40-80
# samplename = HoV6Sn6
# sampletype = crystal
# samplemosaic = 30.000000
# latticeconstants = 5.520013,5.520013,9.152013,90.000000,90.000000,120.000000
# ubmatrix = 0.015667,0.005926,0.108953,0.208596,0.104928,-0.008180,-0.000560,0.180868,0.001176
# mode = 0
# plane_normal = -0.010528,0.003477,0.999939
# ubconf = UB12Aug2024_54830PM.ini
# preset_type = normal 
# preset_channel = time
# preset_value = 5.000000
# def_x = s1
# def_y = detector
# col_headers = 
#   Pt.         s1       time   detector    monitor        mcu         m2      mag_i         s2        sgl        sgu   slitb_bt   slitb_lf   slitb_rt   slitb_tp   slita_bt   slita_lf   slita_rt   slita_tp        stl        stu         a1         a2          q          h          k          l         ei         ef          e        vti       temp     temp_2         lt         ht      1kpot  sorb_temp       sorb  sample_ht persistent_field
      1  -114.5534      5.000     14.000 198214.000      8.371    41.5367    -0.0000   -59.6975     0.6032     0.1990    22.0000     7.0000     8.0000    22.0000    23.0000     3.0000     7.0000    23.0000    -3.0005     0.0010    20.7694    41.5442     2.6285     1.9995     0.0000     0.0674    14.4503    14.4453     0.0050     1.6858     1.0000     0.0000     4.7803     4.7343     2.3172    35.0206    35.0000     4.5000     2.200
      2  -114.6534      5.000      9.000 196603.000      8.303    41.5367     0.0001   -59.6975     0.6032     0.1990    22.0000     7.0000     8.0000    22.0000    23.0000     3.0000     7.0000    23.0000    -3.0005     0.0010    20.7694    41.5442     2.6285     1.9996     0.0000     0.0607    14.4503    14.4453     0.0050     1.6849     1.0000     0.0000     4.7761     4.7287     2.3178    35.0112    35.0000     4.5000     2.200
      3  -114.7534      5.000     12.000 197935.000      8.359    41.5367     0.0001   -59.6975     0.6032     0.1990    22.0000     7.0000     8.0000    22.0000    23.0000     3.0000     7.0000    23.0000    -3.0005     0.0010    20.7694    41.5442     2.6285     1.9996     0.0000     0.0540    14.4503    14.4453     0.0050     1.6838     1.0000     0.0000     4.7988     4.7532     2.3171    34.9824    35.0000     4.5000     2.200
      4  -114.8534      5.000     16.000 198949.000      8.402    41.5367    -0.0000   -59.6975     0.6032     0.1990    22.0000     7.0000     8.0000    22.0000    23.0000     3.0000     7.0000    23.0000    -3.0005     0.0010    20.7694    41.5442     2.6285     1.9997     0.0000     0.0473    14.4503    14.4453     0.0050     1.6829     1.0000     0.0000     4.7778     4.7324     2.3170    34.9861    35.0000     4.5000     2.200
      5  -114.9534      5.000     17.000 198259.000      8.373    41.5367     0.0001   -59.6975     0.6032     0.1990    22.0000     7.0000     8.0000    22.0000    23.0000     3.0000     7.0000    23.0000    -3.0005     0.0010    20.7694    41.5442     2.6285     1.9997     0.0000     0.0407    14.4503    14.4453     0.0050     1.6818     1.0000     0.0000     4.7686     4.7224     2.3171    35.0206    35.0000     4.5000     2.200
      6  -115.0534      5.000     13.000 198112.000      8.366    41.5367    -0.0000   -59.6975     0.6032     0.1990    22.0000     7.0000     8.0000    22.0000    23.0000     3.0000     7.0000    23.0000    -3.0005     0.0010    20.7694    41.5442     2.6285     1.9997     0.0000     0.0340    14.4503    14.4453     0.0050     1.6816     1.0000     0.0000     4.7507     4.7032     2.3179    35.0159    35.0000     4.5000     2.200
      7  -115.1534      5.000     24.000 197938.000      8.359    41.5367     0.0001   -59.6975     0.6032     0.1990    22.0000     7.0000     8.0000    22.0000    23.0000     3.0000     7.0000    23.0000    -3.0005     0.0010    20.7694    41.5442     2.6285     1.9998     0.0000     0.0273    14.4503    14.4453     0.0050     1.6806     1.0000     0.0000     4.7219     4.6722     2.3167    34.9806    35.0000     4.5000     2.200
      8  -115.2534      5.000     42.000 198652.000      8.389    41.5367    -0.0000   -59.6975     0.6032     0.1990    22.0000     7.0000     8.0000    22.0000    23.0000     3.0000     7.0000    23.0000    -3.0005     0.0010    20.7694    41.5442     2.6285     1.9998     0.0000     0.0206    14.4503    14.4453     0.0050     1.6797     1.0000     0.0000     4.7774     4.7313     2.3159    34.9888    35.0000     4.5000     2.200
      9  -115.3534      5.000    140.000 198327.000      8.375    41.5367     0.0000   -59.6975     0.6032     0.1990    22.0000     7.0000     8.0000    22.0000    23.0000     3.0000     7.0000    23.0000    -3.0005     0.0010    20.7694    41.5442     2.6285     1.9998     0.0000     0.0139    14.4503    14.4453     0.0050     1.6788     1.0000     0.0000     4.7610     4.7137     2.3153    35.0180    35.0000     4.5000     2.200
     10  -115.4534      5.000    309.000 198557.000      8.385    41.5367    -0.0000   -59.6975     0.6032     0.1990    22.0000     7.0000     8.0000    22.0000    23.0000     3.0000     7.0000    23.0000    -3.0005     0.0010    20.7694    41.5442     2.6285     1.9998     0.0000     0.0073    14.4503    14.4453     0.0050     1.6779     1.0000     0.0000     4.7492     4.7013     2.3156    35.0171    35.0000     4.5000     2.200
     11  -115.5534      5.000    386.000 197370.000      8.335    41.5367     0.0001   -59.6975     0.6032     0.1990    22.0000     7.0000     8.0000    22.0000    23.0000     3.0000     7.0000    23.0000    -3.0005     0.0010    20.7694    41.5442     2.6285     1.9998     0.0000     0.0006    14.4503    14.4453     0.0050     1.6770     1.0000     0.0000     4.7678     4.7202     2.3142    34.9821    35.0000     4.5000     2.200
     12  -115.6534      5.000    266.000 199003.000      8.404    41.5367    -0.0000   -59.6975     0.6032     0.1990    22.0000     7.0000     8.0000    22.0000    23.0000     3.0000     7.0000    23.0000    -3.0005     0.0010    20.7694    41.5442     2.6285     1.9998     0.0000    -0.0061    14.4503    14.4453     0.0050     1.6764     1.0000     0.0000     4.7217     4.6723     2.3134    34.9891    35.0000     4.5000     2.200
     13  -115.7534      5.000    100.000 199349.000      8.419    41.5367    -0.0000   -59.6975     0.6032     0.1990    22.0000     7.0000     8.0000    22.0000    23.0000     3.0000     7.0000    23.0000    -3.0005     0.0010    20.7694    41.5442     2.6285     1.9998     0.0000    -0.0128    14.4503    14.4453     0.0050     1.6755     1.0000     0.0000     4.7190     4.6694     2.3129    35.0193    35.0000     4.5000     2.200
     14  -115.8534      5.000     30.000 198587.000      8.386    41.5367     0.0001   -59.6975     0.6032     0.1990    22.0000     7.0000     8.0000    22.0000    23.0000     3.0000     7.0000    23.0000    -3.0005     0.0010    20.7694    41.5442     2.6285     1.9998     0.0000    -0.0195    14.4503    14.4453     0.0050     1.6747     1.0000     0.0000     4.7155     4.6643     2.3123    35.0138    35.0000     4.5000     2.200
     15  -115.9534      5.000     13.000 199133.000      8.409    41.5367     0.0000   -59.6975     0.6032     0.1990    22.0000     7.0000     8.0000    22.0000    23.0000     3.0000     7.0000    23.0000    -3.0005     0.0010    20.7694    41.5442     2.6285     1.9998     0.0000    -0.0262    14.4503    14.4453     0.0050     1.6740     1.0000     0.0000     4.6532     4.6018     2.3119    34.9799    35.0000     4.5000     2.200
     16  -116.0534      5.000      5.000 197985.000      8.361    41.5367    -0.0000   -59.6975     0.6032     0.1990    22.0000     7.0000     8.0000    22.0000    23.0000     3.0000     7.0000    23.0000    -3.0005     0.0010    20.7694    41.5442     2.6285     1.9997     0.0000    -0.0328    14.4503    14.4453     0.0050     1.6732     1.0000     0.0000     4.6340     4.5814     2.3112    34.9844    35.0000     4.5000     2.200
     17  -116.1534      5.000      8.000 199159.000      8.411    41.5367    -0.0000   -59.6975     0.6032     0.1990    22.0000     7.0000     8.0000    22.0000    23.0000     3.0000     7.0000    23.0000    -3.0005     0.0010    20.7694    41.5442     2.6285     1.9997     0.0000    -0.0395    14.4503    14.4453     0.0050     1.6725     1.0000     0.0000     4.6093     4.5582     2.3110    35.0183    35.0000     4.5000     2.200
     18  -116.2534      5.000      8.000 198218.000      8.371    41.5367    -0.0000   -59.6975     0.6032     0.1990    22.0000     7.0000     8.0000    22.0000    23.0000     3.0000     7.0000    23.0000    -3.0005     0.0010    20.7694    41.5442     2.6285     1.9997     0.0000    -0.0462    14.4503    14.4453     0.0050     1.6718     1.0000     0.0000     4.6633     4.6094     2.3105    35.0133    35.0000     4.5000     2.200
     19  -116.3534      5.000      8.000 197772.000      8.352    41.5367    -0.0000   -59.6975     0.6032     0.1990    22.0000     7.0000     8.0000    22.0000    23.0000     3.0000     7.0000    23.0000    -3.0005     0.0010    20.7694    41.5442     2.6285     1.9996     0.0000    -0.0529    14.4503    14.4453     0.0050     1.6711     1.0000     0.0000     4.6463     4.5954     2.3096    34.9840    35.0000     4.5000     2.200
     20  -116.4534      5.000     14.000 198538.000      8.384    41.5367    -0.0000   -59.6975     0.6032     0.1990    22.0000     7.0000     8.0000    22.0000    23.0000     3.0000     7.0000    23.0000    -3.0005     0.0010    20.7694    41.5442     2.6285     1.9996     0.0000    -0.0596    14.4503    14.4453     0.0050     1.6705     1.0000     0.0000     4.6194     4.5684     2.3091    34.9850    35.0000     4.5000     2.200
     21  -116.5534      5.000      8.000 198888.000      8.399    41.5367    -0.0000   -59.6975     0.6032     0.1990    22.0000     7.0000     8.0000    22.0000    23.0000     3.0000     7.0000    23.0000    -3.0005     0.0010    20.7694    41.5442     2.6285     1.9995     0.0000    -0.0662    14.4503    14.4453     0.0050     1.6699     1.0000     0.0000     4.6008     4.5493     2.3085    35.0185    35.0000     4.5000     2.200
# Sum of Counts = 1442
# Center of Mass = -115.525661+/-4.302406
# Full Width Half-Maximum = 0.540536+/-1.419620
# 9:16:36 PM  8/16/2024   scan completed.
