# scan = 343
# date = 8/15/2024
# time = 5:22:27 PM
# proposal = 32912
# experiment = Quantum Phase Transition in Transverse Field Ising Ferromagnet HoV6Sn6
# experiment_number = 1031
# command = scan h 0 k 0 l 0.9 1.1 0.008 e 0.1 preset time 60
# builtin_command = scan h 0 k 0 l 0.9 1.1 0.008 e 0.1 preset time 60
# users = Aashish Sapkota, Benjamin Ueland, Fei Li, Rob McQueeney, Tianxiong Han
# local_contact = Wei Tian, Bing Li
# scan_title = HoV6Sn6, longitudinal scan (0 0 1), T=0.25855 K, H=1.8 T
# monochromator = PG002
# analyzer = Pg002
# sense = +-+
# collimation = 40-40-40-80
# samplename = HoV6Sn6
# sampletype = crystal
# samplemosaic = 30.000000
# latticeconstants = 5.520013,5.520013,9.152013,90.000000,90.000000,120.000000
# ubmatrix = 0.015667,0.005926,0.108953,0.208596,0.104928,-0.008180,-0.000560,0.180868,0.001176
# mode = 0
# plane_normal = -0.010528,0.003477,0.999939
# ubconf = UB12Aug2024_54830PM.ini
# preset_type = normal 
# preset_channel = time
# preset_value = 60.000000
# def_x = l
# def_y = detector
# col_headers = 
#   Pt.          h          k          l          e       time   detector    monitor        mcu         m2      mag_i         s1         s2        sgl        sgu   slitb_bt   slitb_lf   slitb_rt   slitb_tp   slita_bt   slita_lf   slita_rt   slita_tp        stl        stu         a1         a2          q         ei         ef        vti       temp     temp_2         lt         ht      1kpot  sorb_temp       sorb  sample_ht persistent_field
      1    -0.0003    -0.0000     0.8995     0.1049     60.000    359.000 1668326.000     70.454    41.5367    -0.0000    -3.2769   -13.4529     0.6032     0.1990    22.0000     7.0000     8.0000    22.0000    23.0000     3.0000     7.0000    23.0000    -3.0005     0.0010    20.8459    41.6953     0.6176    14.4503    14.3454     1.6627     1.0000     0.0000     0.2591     0.3168     1.6945     1.7494     0.0000     0.0000     1.800
      2    -0.0003    -0.0000     0.9077     0.1049     60.000      0.000      0.000      0.000    41.5367    -0.0000    -3.3295   -13.5761     0.6032     0.1990    22.0000     7.0000     8.0000    22.0000    23.0000     3.0000     7.0000    23.0000    -3.0005     0.0010    20.8459    41.6953     0.6232    14.4503    14.3454     1.6637     1.0000     0.0000     0.2588     0.3164     1.6971     1.7501     0.0000     0.0000     1.800
# Sum of Counts = 359
# Center of Mass = 0.899500+/-0.067138
# Full Width Half-Maximum = 0.000000+/-NaN
# 5:26:25 PM  8/15/2024   scan stopped!!
