# scan = 380
# date = 8/16/2024
# time = 4:44:56 PM
# proposal = 32912
# experiment = Quantum Phase Transition in Transverse Field Ising Ferromagnet HoV6Sn6
# experiment_number = 1031
# command = scanrel s1 1 -1 0.1
# builtin_command = scan s1 @(s1)+1 @(s1)+-1 0.100000
# users = Aashish Sapkota, Benjamin Ueland, Fei Li, Rob McQueeney, Tianxiong Han
# local_contact = Wei Tian, Bing Li
# scan_title = OP on Hc (2 0 0) H = 1.8 T, T = 1.75955 K
# monochromator = PG002
# analyzer = Pg002
# sense = +-+
# collimation = 40-40-40-80
# samplename = HoV6Sn6
# sampletype = crystal
# samplemosaic = 30.000000
# latticeconstants = 5.520013,5.520013,9.152013,90.000000,90.000000,120.000000
# ubmatrix = 0.015667,0.005926,0.108953,0.208596,0.104928,-0.008180,-0.000560,0.180868,0.001176
# mode = 0
# plane_normal = -0.010528,0.003477,0.999939
# ubconf = UB12Aug2024_54830PM.ini
# preset_type = normal 
# preset_channel = time
# preset_value = 5.000000
# def_x = s1
# def_y = detector
# col_headers = 
#   Pt.         s1       time   detector    monitor        mcu         m2      mag_i         s2        sgl        sgu   slitb_bt   slitb_lf   slitb_rt   slitb_tp   slita_bt   slita_lf   slita_rt   slita_tp        stl        stu         a1         a2          q          h          k          l         ei         ef          e        vti       temp     temp_2         lt         ht      1kpot  sorb_temp       sorb  sample_ht persistent_field
      1  -114.5534      5.000     12.000 197723.000      8.350    41.5367     0.0001   -59.6976     0.6032     0.1990    22.0000     7.0000     8.0000    22.0000    23.0000     3.0000     7.0000    23.0000    -3.0005     0.0010    20.7682    41.5442     2.6285     1.9995     0.0000     0.0674    14.4503    14.4453     0.0050     1.6569     1.0000     0.0000     1.8035     1.7654     1.7442    34.9760    35.0000     3.0000     1.800
      2  -114.6534      5.000     11.000 198108.000      8.366    41.5367    -0.0000   -59.6976     0.6032     0.1990    22.0000     7.0000     8.0000    22.0000    23.0000     3.0000     7.0000    23.0000    -3.0005     0.0010    20.7682    41.5442     2.6285     1.9996     0.0000     0.0607    14.4503    14.4453     0.0050     1.6563     1.0000     0.0000     1.8011     1.7628     1.7418    34.9348    35.0000     3.0000     1.800
      3  -114.7534      5.000     13.000 198107.000      8.366    41.5367    -0.0000   -59.6976     0.6032     0.1990    22.0000     7.0000     8.0000    22.0000    23.0000     3.0000     7.0000    23.0000    -3.0005     0.0010    20.7682    41.5442     2.6285     1.9996     0.0000     0.0540    14.4503    14.4453     0.0050     1.6559     1.0000     0.0000     1.8046     1.7664     1.7445    35.0813    35.0000     3.0000     1.800
      4  -114.8534      5.000     10.000 199750.000      8.436    41.5367    -0.0000   -59.6976     0.6032     0.1990    22.0000     7.0000     8.0000    22.0000    23.0000     3.0000     7.0000    23.0000    -3.0005     0.0010    20.7683    41.5442     2.6285     1.9997     0.0000     0.0474    14.4503    14.4453     0.0050     1.6554     1.0000     0.0000     1.8095     1.7715     1.7477    35.0317    35.0000     3.0000     1.800
      5  -114.9534      5.000     13.000 198523.000      8.384    41.5367    -0.0000   -59.6976     0.6032     0.1990    22.0000     7.0000     8.0000    22.0000    23.0000     3.0000     7.0000    23.0000    -3.0005     0.0010    20.7683    41.5442     2.6285     1.9997     0.0000     0.0407    14.4503    14.4453     0.0050     1.6548     1.0000     0.0000     1.8097     1.7718     1.7474    34.9098    35.0000     3.0000     1.800
      6  -115.0534      5.000     16.000 198726.000      8.392    41.5367    -0.0000   -59.6976     0.6032     0.1990    22.0000     7.0000     8.0000    22.0000    23.0000     3.0000     7.0000    23.0000    -3.0005     0.0010    20.7683    41.5442     2.6285     1.9997     0.0000     0.0340    14.4503    14.4453     0.0050     1.6543     1.0000     0.0000     1.8111     1.7730     1.7478    35.0088    35.0000     3.0000     1.800
      7  -115.1534      5.000     29.000 198561.000      8.385    41.5367     0.0000   -59.6976     0.6032     0.1990    22.0000     7.0000     8.0000    22.0000    23.0000     3.0000     7.0000    23.0000    -3.0005     0.0010    20.7683    41.5442     2.6285     1.9998     0.0000     0.0273    14.4503    14.4453     0.0050     1.6537     1.0000     0.0000     1.8177     1.7800     1.7521    35.0807    35.0000     3.0000     1.800
      8  -115.2534      5.000     42.000 199187.000      8.412    41.5367    -0.0000   -59.6976     0.6032     0.1990    22.0000     7.0000     8.0000    22.0000    23.0000     3.0000     7.0000    23.0000    -3.0005     0.0010    20.7682    41.5442     2.6285     1.9998     0.0000     0.0206    14.4503    14.4453     0.0050     1.6523     1.0000     0.0000     1.8235     1.7855     1.7545    34.9630    35.0000     3.0000     1.800
      9  -115.3534      5.000    169.000 198919.000      8.400    41.5367     0.0001   -59.6976     0.6032     0.1990    22.0000     7.0000     8.0000    22.0000    23.0000     3.0000     7.0000    23.0000    -3.0005     0.0010    20.7683    41.5442     2.6285     1.9998     0.0000     0.0139    14.4503    14.4453     0.0050     1.6519     1.0000     0.0000     1.8241     1.7859     1.7539    34.9360    35.0000     3.0000     1.800
     10  -115.4534      5.000    369.000 197571.000      8.344    41.5367    -0.0000   -59.6976     0.6032     0.1990    22.0000     7.0000     8.0000    22.0000    23.0000     3.0000     7.0000    23.0000    -3.0005     0.0010    20.7683    41.5442     2.6285     1.9998     0.0000     0.0073    14.4503    14.4453     0.0050     1.6514     1.0000     0.0000     1.8294     1.7908     1.7573    35.0665    35.0000     3.0000     1.800
     11  -115.5534      5.000    432.000 198124.000      8.367    41.5367     0.0000   -59.6976     0.6032     0.1990    22.0000     7.0000     8.0000    22.0000    23.0000     3.0000     7.0000    23.0000    -3.0005     0.0010    20.7682    41.5442     2.6285     1.9998     0.0000     0.0006    14.4503    14.4453     0.0050     1.6509     1.0000     0.0000     1.8373     1.7975     1.7620    35.0506    35.0000     3.0000     1.800
     12  -115.6534      5.000    269.000 198960.000      8.402    41.5367     0.0001   -59.6976     0.6032     0.1990    22.0000     7.0000     8.0000    22.0000    23.0000     3.0000     7.0000    23.0000    -3.0005     0.0010    20.7682    41.5442     2.6285     1.9998     0.0000    -0.0061    14.4503    14.4453     0.0050     1.6505     1.0000     0.0000     1.8397     1.7997     1.7629    34.9151    35.0000     3.0000     1.800
     13  -115.7534      5.000    109.000 198793.000      8.395    41.5367     0.0001   -59.6976     0.6032     0.1990    22.0000     7.0000     8.0000    22.0000    23.0000     3.0000     7.0000    23.0000    -3.0005     0.0010    20.7682    41.5442     2.6285     1.9998     0.0000    -0.0128    14.4503    14.4453     0.0050     1.6500     1.0000     0.0000     1.8436     1.8032     1.7646    35.0136    35.0000     3.0000     1.800
     14  -115.8534      5.000     43.000 199537.000      8.427    41.5367     0.0000   -59.6976     0.6032     0.1990    22.0000     7.0000     8.0000    22.0000    23.0000     3.0000     7.0000    23.0000    -3.0005     0.0010    20.7682    41.5442     2.6285     1.9998     0.0000    -0.0195    14.4503    14.4453     0.0050     1.6496     1.0000     0.0000     1.8529     1.8114     1.7702    35.0769    35.0000     3.0000     1.800
     15  -115.9534      5.000     12.000 198297.000      8.374    41.5367     0.0000   -59.6976     0.6032     0.1990    22.0000     7.0000     8.0000    22.0000    23.0000     3.0000     7.0000    23.0000    -3.0005     0.0010    20.7682    41.5442     2.6285     1.9998     0.0000    -0.0262    14.4503    14.4453     0.0050     1.6491     1.0000     0.0000     1.8594     1.8171     1.7737    34.9612    35.0000     3.0000     1.800
     16  -116.0534      5.000     19.000 198344.000      8.376    41.5367    -0.0000   -59.6976     0.6032     0.1990    22.0000     7.0000     8.0000    22.0000    23.0000     3.0000     7.0000    23.0000    -3.0005     0.0010    20.7683    41.5442     2.6285     1.9997     0.0000    -0.0328    14.4503    14.4453     0.0050     1.6486     1.0000     0.0000     1.8617     1.8192     1.7743    34.9420    35.0000     3.0000     1.800
     17  -116.1534      5.000     14.000 198296.000      8.374    41.5367    -0.0000   -59.6976     0.6032     0.1990    22.0000     7.0000     8.0000    22.0000    23.0000     3.0000     7.0000    23.0000    -3.0005     0.0010    20.7682    41.5442     2.6285     1.9997     0.0000    -0.0395    14.4503    14.4453     0.0050     1.6479     1.0000     0.0000     1.8678     1.8249     1.7787    35.0645    35.0000     3.0000     1.800
     18  -116.2534      5.000     10.000 198407.000      8.379    41.5367    -0.0000   -59.6976     0.6032     0.1990    22.0000     7.0000     8.0000    22.0000    23.0000     3.0000     7.0000    23.0000    -3.0005     0.0010    20.7683    41.5442     2.6285     1.9997     0.0000    -0.0462    14.4503    14.4453     0.0050     1.6472     1.0000     0.0000     1.8755     1.8317     1.7840    35.0141    35.0000     3.0000     1.800
     19  -116.3534      5.000     13.000 199119.000      8.409    41.5367     0.0000   -59.6976     0.6032     0.1990    22.0000     7.0000     8.0000    22.0000    23.0000     3.0000     7.0000    23.0000    -3.0005     0.0010    20.7683    41.5442     2.6285     1.9996     0.0000    -0.0529    14.4503    14.4453     0.0050     1.6462     1.0000     0.0000     1.8791     1.8351     1.7859    34.9203    35.0000     3.0000     1.800
     20  -116.4534      5.000     15.000 198801.000      8.395    41.5367    -0.0000   -59.6976     0.6032     0.1990    22.0000     7.0000     8.0000    22.0000    23.0000     3.0000     7.0000    23.0000    -3.0005     0.0010    20.7683    41.5442     2.6285     1.9996     0.0000    -0.0596    14.4503    14.4453     0.0050     1.6449     1.0000     0.0000     1.8837     1.8394     1.7889    35.0190    35.0000     3.0000     1.800
     21  -116.5534      5.000      8.000 197565.000      8.343    41.5367    -0.0000   -59.6976     0.6032     0.1990    22.0000     7.0000     8.0000    22.0000    23.0000     3.0000     7.0000    23.0000    -3.0005     0.0010    20.7682    41.5442     2.6285     1.9995     0.0000    -0.0662    14.4503    14.4453     0.0050     1.6435     1.0000     0.0000     1.8916     1.8474     1.7948    35.0662    35.0000     3.0000     1.800
# Sum of Counts = 1628
# Center of Mass = -115.536938+/-4.049573
# Full Width Half-Maximum = 0.536709+/-1.319926
# 4:47:11 PM  8/16/2024   scan completed.
