# scan = 392
# date = 8/16/2024
# time = 6:24:04 PM
# proposal = 32912
# experiment = Quantum Phase Transition in Transverse Field Ising Ferromagnet HoV6Sn6
# experiment_number = 1031
# command = scanrel s1 1 -1 0.1
# builtin_command = scan s1 @(s1)+1 @(s1)+-1 0.100000
# users = Aashish Sapkota, Benjamin Ueland, Fei Li, Rob McQueeney, Tianxiong Han
# local_contact = Wei Tian, Bing Li
# scan_title = OP on Hc (2 0 0) H = 2 T, T = 1.07508 K
# monochromator = PG002
# analyzer = Pg002
# sense = +-+
# collimation = 40-40-40-80
# samplename = HoV6Sn6
# sampletype = crystal
# samplemosaic = 30.000000
# latticeconstants = 5.520013,5.520013,9.152013,90.000000,90.000000,120.000000
# ubmatrix = 0.015667,0.005926,0.108953,0.208596,0.104928,-0.008180,-0.000560,0.180868,0.001176
# mode = 0
# plane_normal = -0.010528,0.003477,0.999939
# ubconf = UB12Aug2024_54830PM.ini
# preset_type = normal 
# preset_channel = time
# preset_value = 5.000000
# def_x = s1
# def_y = detector
# col_headers = 
#   Pt.         s1       time   detector    monitor        mcu         m2      mag_i         s2        sgl        sgu   slitb_bt   slitb_lf   slitb_rt   slitb_tp   slita_bt   slita_lf   slita_rt   slita_tp        stl        stu         a1         a2          q          h          k          l         ei         ef          e        vti       temp     temp_2         lt         ht      1kpot  sorb_temp       sorb  sample_ht persistent_field
      1  -114.5534      5.000     17.000 198102.000      8.366    41.5367    -0.0000   -59.6975     0.6032     0.1990    22.0000     7.0000     8.0000    22.0000    23.0000     3.0000     7.0000    23.0000    -3.0005     0.0010    20.7695    41.5442     2.6285     1.9995     0.0000     0.0674    14.4503    14.4453     0.0050     1.6378     1.0000     0.0000     1.0782     1.0799     1.6620    22.0550    22.0000     0.0000     2.000
      2  -114.6534      5.000     20.000 198247.000      8.372    41.5367    -0.0000   -59.6975     0.6032     0.1990    22.0000     7.0000     8.0000    22.0000    23.0000     3.0000     7.0000    23.0000    -3.0005     0.0010    20.7695    41.5442     2.6285     1.9996     0.0000     0.0607    14.4503    14.4453     0.0050     1.6371     1.0000     0.0000     1.0790     1.0807     1.6598    22.0429    22.0000     0.0000     2.000
      3  -114.7534      5.000     15.000 197569.000      8.343    41.5367     0.0001   -59.6975     0.6032     0.1990    22.0000     7.0000     8.0000    22.0000    23.0000     3.0000     7.0000    23.0000    -3.0005     0.0010    20.7694    41.5442     2.6285     1.9996     0.0000     0.0540    14.4503    14.4453     0.0050     1.6364     1.0000     0.0000     1.0772     1.0793     1.6589    21.9591    22.0000     0.0000     2.000
      4  -114.8534      5.000     16.000 198388.000      8.378    41.5367     0.0001   -59.6975     0.6032     0.1990    22.0000     7.0000     8.0000    22.0000    23.0000     3.0000     7.0000    23.0000    -3.0005     0.0010    20.7695    41.5442     2.6285     1.9997     0.0000     0.0473    14.4503    14.4453     0.0050     1.6357     1.0000     0.0000     1.0760     1.0781     1.6574    21.9746    22.0000     0.0000     2.000
      5  -114.9534      5.000     18.000 198277.000      8.373    41.5367     0.0001   -59.6975     0.6032     0.1990    22.0000     7.0000     8.0000    22.0000    23.0000     3.0000     7.0000    23.0000    -3.0005     0.0010    20.7695    41.5442     2.6285     1.9997     0.0000     0.0407    14.4503    14.4453     0.0050     1.6351     1.0000     0.0000     1.0792     1.0812     1.6566    22.0412    22.0000     0.0000     2.000
      6  -115.0534      5.000     12.000 197687.000      8.348    41.5367    -0.0000   -59.6975     0.6032     0.1990    22.0000     7.0000     8.0000    22.0000    23.0000     3.0000     7.0000    23.0000    -3.0005     0.0010    20.7694    41.5442     2.6285     1.9997     0.0000     0.0340    14.4503    14.4453     0.0050     1.6343     1.0000     0.0000     1.0810     1.0825     1.6559    22.0565    22.0000     0.0000     2.000
      7  -115.1534      5.000     21.000 197623.000      8.346    41.5367    -0.0000   -59.6975     0.6032     0.1990    22.0000     7.0000     8.0000    22.0000    23.0000     3.0000     7.0000    23.0000    -3.0005     0.0010    20.7695    41.5442     2.6285     1.9998     0.0000     0.0273    14.4503    14.4453     0.0050     1.6329     1.0000     0.0000     1.0808     1.0826     1.6548    22.0063    22.0000     0.0000     2.000
      8  -115.2534      5.000     62.000 198847.000      8.397    41.5367    -0.0000   -59.6975     0.6032     0.1990    22.0000     7.0000     8.0000    22.0000    23.0000     3.0000     7.0000    23.0000    -3.0005     0.0010    20.7695    41.5442     2.6285     1.9998     0.0000     0.0206    14.4503    14.4453     0.0050     1.6319     1.0000     0.0000     1.0784     1.0801     1.6532    21.9421    22.0000     0.0000     2.000
      9  -115.3534      5.000    174.000 198282.000      8.374    41.5367    -0.0000   -59.6975     0.6032     0.1990    22.0000     7.0000     8.0000    22.0000    23.0000     3.0000     7.0000    23.0000    -3.0005     0.0010    20.7694    41.5442     2.6285     1.9998     0.0000     0.0139    14.4503    14.4453     0.0050     1.6311     1.0000     0.0000     1.0780     1.0798     1.6517    21.9413    22.0000     0.0000     2.000
     10  -115.4534      5.000    412.000 199394.000      8.420    41.5367    -0.0000   -59.6975     0.6032     0.1990    22.0000     7.0000     8.0000    22.0000    23.0000     3.0000     7.0000    23.0000    -3.0005     0.0010    20.7694    41.5442     2.6285     1.9998     0.0000     0.0073    14.4503    14.4453     0.0050     1.6304     1.0000     0.0000     1.0792     1.0811     1.6518    21.9989    22.0000     0.0000     2.000
     11  -115.5534      5.000    478.000 199021.000      8.405    41.5367     0.0000   -59.6975     0.6032     0.1990    22.0000     7.0000     8.0000    22.0000    23.0000     3.0000     7.0000    23.0000    -3.0005     0.0010    20.7694    41.5442     2.6285     1.9998     0.0000     0.0006    14.4503    14.4453     0.0050     1.6298     1.0000     0.0000     1.0821     1.0838     1.6513    22.0536    22.0000     0.0000     2.000
     12  -115.6534      5.000    314.000 197757.000      8.351    41.5367    -0.0000   -59.6975     0.6032     0.1990    22.0000     7.0000     8.0000    22.0000    23.0000     3.0000     7.0000    23.0000    -3.0005     0.0010    20.7694    41.5442     2.6285     1.9998     0.0000    -0.0061    14.4503    14.4453     0.0050     1.6293     1.0000     0.0000     1.0829     1.0844     1.6515    22.0292    22.0000     0.0000     2.000
     13  -115.7534      5.000    125.000 198077.000      8.365    41.5367     0.0001   -59.6975     0.6032     0.1990    22.0000     7.0000     8.0000    22.0000    23.0000     3.0000     7.0000    23.0000    -3.0005     0.0010    20.7694    41.5442     2.6285     1.9998     0.0000    -0.0128    14.4503    14.4453     0.0050     1.6288     1.0000     0.0000     1.0822     1.0835     1.6501    21.9764    22.0000     0.0000     2.000
     14  -115.8534      5.000     32.000 197881.000      8.357    41.5367     0.0001   -59.6975     0.6032     0.1990    22.0000     7.0000     8.0000    22.0000    23.0000     3.0000     7.0000    23.0000    -3.0005     0.0010    20.7695    41.5442     2.6285     1.9998     0.0000    -0.0195    14.4503    14.4453     0.0050     1.6282     1.0000     0.0000     1.0796     1.0813     1.6485    21.9437    22.0000     0.0000     2.000
     15  -115.9534      5.000     13.000 197774.000      8.352    41.5367    -0.0000   -59.6975     0.6032     0.1990    22.0000     7.0000     8.0000    22.0000    23.0000     3.0000     7.0000    23.0000    -3.0005     0.0010    20.7694    41.5442     2.6285     1.9998     0.0000    -0.0262    14.4503    14.4453     0.0050     1.6278     1.0000     0.0000     1.0805     1.0824     1.6478    22.0009    22.0000     0.0000     2.000
     16  -116.0534      5.000      8.000 199052.000      8.406    41.5367    -0.0000   -59.6975     0.6032     0.1990    22.0000     7.0000     8.0000    22.0000    23.0000     3.0000     7.0000    23.0000    -3.0005     0.0010    20.7695    41.5442     2.6285     1.9997     0.0000    -0.0328    14.4503    14.4453     0.0050     1.6269     1.0000     0.0000     1.0826     1.0840     1.6481    22.0359    22.0000     0.0000     2.000
     17  -116.1534      5.000      9.000 198880.000      8.399    41.5367     0.0000   -59.6975     0.6032     0.1990    22.0000     7.0000     8.0000    22.0000    23.0000     3.0000     7.0000    23.0000    -3.0005     0.0010    20.7694    41.5442     2.6285     1.9997     0.0000    -0.0395    14.4503    14.4453     0.0050     1.6266     1.0000     0.0000     1.0841     1.0856     1.6491    22.0505    22.0000     0.0000     2.000
     18  -116.2534      5.000     13.000 199082.000      8.407    41.5367    -0.0000   -59.6975     0.6032     0.1990    22.0000     7.0000     8.0000    22.0000    23.0000     3.0000     7.0000    23.0000    -3.0005     0.0010    20.7695    41.5442     2.6285     1.9997     0.0000    -0.0462    14.4503    14.4453     0.0050     1.6263     1.0000     0.0000     1.0828     1.0841     1.6480    21.9767    22.0000     0.0000     2.000
     19  -116.3534      5.000     15.000 199514.000      8.426    41.5367     0.0001   -59.6975     0.6032     0.1990    22.0000     7.0000     8.0000    22.0000    23.0000     3.0000     7.0000    23.0000    -3.0005     0.0010    20.7695    41.5442     2.6285     1.9996     0.0000    -0.0529    14.4503    14.4453     0.0050     1.6261     1.0000     0.0000     1.0805     1.0821     1.6467    21.9449    22.0000     0.0000     2.000
     20  -116.4534      5.000     15.000 197440.000      8.338    41.5367    -0.0000   -59.6975     0.6032     0.1990    22.0000     7.0000     8.0000    22.0000    23.0000     3.0000     7.0000    23.0000    -3.0005     0.0010    20.7694    41.5442     2.6285     1.9996     0.0000    -0.0596    14.4503    14.4453     0.0050     1.6259     1.0000     0.0000     1.0809     1.0825     1.6464    21.9714    22.0000     0.0000     2.000
     21  -116.5534      5.000      7.000 199010.000      8.404    41.5367    -0.0000   -59.6975     0.6032     0.1990    22.0000     7.0000     8.0000    22.0000    23.0000     3.0000     7.0000    23.0000    -3.0005     0.0010    20.7695    41.5442     2.6285     1.9995     0.0000    -0.0662    14.4503    14.4453     0.0050     1.6257     1.0000     0.0000     1.0840     1.0857     1.6467    22.0492    22.0000     0.0000     2.000
# Sum of Counts = 1796
# Center of Mass = -115.522331+/-3.855035
# Full Width Half-Maximum = 0.541931+/-1.267722
# 6:26:20 PM  8/16/2024   scan completed.
