# scan = 416
# date = 8/16/2024
# time = 8:53:15 PM
# proposal = 32912
# experiment = Quantum Phase Transition in Transverse Field Ising Ferromagnet HoV6Sn6
# experiment_number = 1031
# command = scanrel s1 1 -1 0.1
# builtin_command = scan s1 @(s1)+1 @(s1)+-1 0.100000
# users = Aashish Sapkota, Benjamin Ueland, Fei Li, Rob McQueeney, Tianxiong Han
# local_contact = Wei Tian, Bing Li
# scan_title = OP on Hc (2 0 0) H = 2.2 T, T = 1.72754 K
# monochromator = PG002
# analyzer = Pg002
# sense = +-+
# collimation = 40-40-40-80
# samplename = HoV6Sn6
# sampletype = crystal
# samplemosaic = 30.000000
# latticeconstants = 5.520013,5.520013,9.152013,90.000000,90.000000,120.000000
# ubmatrix = 0.015667,0.005926,0.108953,0.208596,0.104928,-0.008180,-0.000560,0.180868,0.001176
# mode = 0
# plane_normal = -0.010528,0.003477,0.999939
# ubconf = UB12Aug2024_54830PM.ini
# preset_type = normal 
# preset_channel = time
# preset_value = 5.000000
# def_x = s1
# def_y = detector
# col_headers = 
#   Pt.         s1       time   detector    monitor        mcu         m2      mag_i         s2        sgl        sgu   slitb_bt   slitb_lf   slitb_rt   slitb_tp   slita_bt   slita_lf   slita_rt   slita_tp        stl        stu         a1         a2          q          h          k          l         ei         ef          e        vti       temp     temp_2         lt         ht      1kpot  sorb_temp       sorb  sample_ht persistent_field
      1  -114.5534      5.000      7.000 198321.000      8.375    41.5367     0.0001   -59.6975     0.6032     0.1990    22.0000     7.0000     8.0000    22.0000    23.0000     3.0000     7.0000    23.0000    -3.0005     0.0010    20.7694    41.5442     2.6285     1.9995     0.0000     0.0674    14.4503    14.4453     0.0050     1.6666     1.0000     0.0000     1.7297     1.6958     1.7189    31.9489    32.0000     0.0000     2.200
      2  -114.6534      5.000     14.000 198782.000      8.395    41.5367     0.0001   -59.6975     0.6032     0.1990    22.0000     7.0000     8.0000    22.0000    23.0000     3.0000     7.0000    23.0000    -3.0005     0.0010    20.7694    41.5442     2.6285     1.9996     0.0000     0.0607    14.4503    14.4453     0.0050     1.6661     1.0000     0.0000     1.7275     1.6938     1.7165    31.9287    32.0000     0.0000     2.200
      3  -114.7534      5.000     12.000 198403.000      8.379    41.5367    -0.0000   -59.6975     0.6032     0.1990    22.0000     7.0000     8.0000    22.0000    23.0000     3.0000     7.0000    23.0000    -3.0005     0.0010    20.7694    41.5442     2.6285     1.9996     0.0000     0.0540    14.4503    14.4453     0.0050     1.6655     1.0000     0.0000     1.7264     1.6931     1.7146    31.9488    32.0000     0.0000     2.200
      4  -114.8534      5.000     18.000 199590.000      8.429    41.5367     0.0000   -59.6975     0.6032     0.1990    22.0000     7.0000     8.0000    22.0000    23.0000     3.0000     7.0000    23.0000    -3.0005     0.0010    20.7694    41.5442     2.6285     1.9997     0.0000     0.0473    14.4503    14.4453     0.0050     1.6651     1.0000     0.0000     1.7262     1.6929     1.7132    32.0041    32.0000     0.0000     2.200
      5  -114.9534      5.000     14.000 199159.000      8.411    41.5367    -0.0000   -59.6975     0.6032     0.1990    22.0000     7.0000     8.0000    22.0000    23.0000     3.0000     7.0000    23.0000    -3.0005     0.0010    20.7694    41.5442     2.6285     1.9997     0.0000     0.0407    14.4503    14.4453     0.0050     1.6646     1.0000     0.0000     1.7269     1.6934     1.7105    32.0298    32.0000     0.0000     2.200
      6  -115.0534      5.000      9.000 200236.000      8.456    41.5367     0.0000   -59.6975     0.6032     0.1990    22.0000     7.0000     8.0000    22.0000    23.0000     3.0000     7.0000    23.0000    -3.0005     0.0010    20.7694    41.5442     2.6285     1.9997     0.0000     0.0340    14.4503    14.4453     0.0050     1.6642     1.0000     0.0000     1.7282     1.6947     1.7101    32.0580    32.0000     0.0000     2.200
      7  -115.1534      5.000     22.000 199757.000      8.436    41.5367     0.0000   -59.6975     0.6032     0.1990    22.0000     7.0000     8.0000    22.0000    23.0000     3.0000     7.0000    23.0000    -3.0005     0.0010    20.7694    41.5442     2.6285     1.9998     0.0000     0.0273    14.4503    14.4453     0.0050     1.6639     1.0000     0.0000     1.7297     1.6958     1.7110    32.0616    32.0000     0.0000     2.200
      8  -115.2534      5.000     58.000 199107.000      8.408    41.5367    -0.0000   -59.6975     0.6032     0.1990    22.0000     7.0000     8.0000    22.0000    23.0000     3.0000     7.0000    23.0000    -3.0005     0.0010    20.7694    41.5442     2.6285     1.9998     0.0000     0.0206    14.4503    14.4453     0.0050     1.6635     1.0000     0.0000     1.7302     1.6964     1.7111    32.0534    32.0000     0.0000     2.200
      9  -115.3534      5.000    182.000 199138.000      8.410    41.5367    -0.0000   -59.6975     0.6032     0.1990    22.0000     7.0000     8.0000    22.0000    23.0000     3.0000     7.0000    23.0000    -3.0005     0.0010    20.7694    41.5442     2.6285     1.9998     0.0000     0.0139    14.4503    14.4453     0.0050     1.6632     1.0000     0.0000     1.7308     1.6968     1.7101    32.0243    32.0000     0.0000     2.200
     10  -115.4534      5.000    377.000 198571.000      8.386    41.5367    -0.0000   -59.6975     0.6032     0.1990    22.0000     7.0000     8.0000    22.0000    23.0000     3.0000     7.0000    23.0000    -3.0005     0.0010    20.7694    41.5442     2.6285     1.9998     0.0000     0.0073    14.4503    14.4453     0.0050     1.6629     1.0000     0.0000     1.7306     1.6965     1.7089    31.9860    32.0000     0.0000     2.200
     11  -115.5534      5.000    471.000 199411.000      8.421    41.5367     0.0001   -59.6975     0.6032     0.1990    22.0000     7.0000     8.0000    22.0000    23.0000     3.0000     7.0000    23.0000    -3.0005     0.0010    20.7694    41.5442     2.6285     1.9998     0.0000     0.0006    14.4503    14.4453     0.0050     1.6625     1.0000     0.0000     1.7302     1.6962     1.7100    31.9663    32.0000     0.0000     2.200
     12  -115.6534      5.000    331.000 197952.000      8.360    41.5367    -0.0000   -59.6975     0.6032     0.1990    22.0000     7.0000     8.0000    22.0000    23.0000     3.0000     7.0000    23.0000    -3.0005     0.0010    20.7694    41.5442     2.6285     1.9998     0.0000    -0.0061    14.4503    14.4453     0.0050     1.6623     1.0000     0.0000     1.7281     1.6944     1.7088    31.9356    32.0000     0.0000     2.200
     13  -115.7534      5.000    161.000 198466.000      8.381    41.5367     0.0001   -59.6975     0.6032     0.1990    22.0000     7.0000     8.0000    22.0000    23.0000     3.0000     7.0000    23.0000    -3.0005     0.0010    20.7694    41.5442     2.6285     1.9998     0.0000    -0.0128    14.4503    14.4453     0.0050     1.6620     1.0000     0.0000     1.7270     1.6933     1.7072    31.9404    32.0000     0.0000     2.200
     14  -115.8534      5.000     32.000 198719.000      8.392    41.5367    -0.0000   -59.6975     0.6032     0.1990    22.0000     7.0000     8.0000    22.0000    23.0000     3.0000     7.0000    23.0000    -3.0005     0.0010    20.7694    41.5442     2.6285     1.9998     0.0000    -0.0195    14.4503    14.4453     0.0050     1.6617     1.0000     0.0000     1.7268     1.6931     1.7053    31.9484    32.0000     0.0000     2.200
     15  -115.9534      5.000     15.000 197878.000      8.356    41.5367    -0.0000   -59.6975     0.6032     0.1990    22.0000     7.0000     8.0000    22.0000    23.0000     3.0000     7.0000    23.0000    -3.0005     0.0010    20.7694    41.5442     2.6285     1.9998     0.0000    -0.0262    14.4503    14.4453     0.0050     1.6614     1.0000     0.0000     1.7262     1.6927     1.7052    31.9779    32.0000     0.0000     2.200
     16  -116.0534      5.000     15.000 198239.000      8.372    41.5367     0.0000   -59.6975     0.6032     0.1990    22.0000     7.0000     8.0000    22.0000    23.0000     3.0000     7.0000    23.0000    -3.0005     0.0010    20.7694    41.5442     2.6285     1.9997     0.0000    -0.0328    14.4503    14.4453     0.0050     1.6612     1.0000     0.0000     1.7266     1.6932     1.7056    32.0187    32.0000     0.0000     2.200
     17  -116.1534      5.000     13.000 197408.000      8.337    41.5367    -0.0000   -59.6975     0.6032     0.1990    22.0000     7.0000     8.0000    22.0000    23.0000     3.0000     7.0000    23.0000    -3.0005     0.0010    20.7694    41.5442     2.6285     1.9997     0.0000    -0.0395    14.4503    14.4453     0.0050     1.6609     1.0000     0.0000     1.7277     1.6941     1.7047    32.0514    32.0000     0.0000     2.200
     18  -116.2534      5.000     11.000 197746.000      8.351    41.5367     0.0001   -59.6975     0.6032     0.1990    22.0000     7.0000     8.0000    22.0000    23.0000     3.0000     7.0000    23.0000    -3.0005     0.0010    20.7694    41.5442     2.6285     1.9997     0.0000    -0.0462    14.4503    14.4453     0.0050     1.6607     1.0000     0.0000     1.7285     1.6947     1.7047    32.0611    32.0000     0.0000     2.200
     19  -116.3534      5.000     20.000 199831.000      8.439    41.5367     0.0001   -59.6975     0.6032     0.1990    22.0000     7.0000     8.0000    22.0000    23.0000     3.0000     7.0000    23.0000    -3.0005     0.0010    20.7694    41.5442     2.6285     1.9996     0.0000    -0.0529    14.4503    14.4453     0.0050     1.6604     1.0000     0.0000     1.7294     1.6955     1.7045    32.0603    32.0000     0.0000     2.200
     20  -116.4534      5.000     11.000 198880.000      8.399    41.5367     0.0000   -59.6975     0.6032     0.1990    22.0000     7.0000     8.0000    22.0000    23.0000     3.0000     7.0000    23.0000    -3.0005     0.0010    20.7694    41.5442     2.6285     1.9996     0.0000    -0.0596    14.4503    14.4453     0.0050     1.6602     1.0000     0.0000     1.7303     1.6962     1.7040    32.0312    32.0000     0.0000     2.200
     21  -116.5534      5.000      8.000 197876.000      8.356    41.5367    -0.0000   -59.6975     0.6032     0.1990    22.0000     7.0000     8.0000    22.0000    23.0000     3.0000     7.0000    23.0000    -3.0005     0.0010    20.7694    41.5442     2.6285     1.9995     0.0000    -0.0662    14.4503    14.4453     0.0050     1.6600     1.0000     0.0000     1.7303     1.6964     1.7031    32.0115    32.0000     0.0000     2.200
# Sum of Counts = 1801
# Center of Mass = -115.543850+/-3.850397
# Full Width Half-Maximum = 0.516933+/-1.331433
# 8:55:34 PM  8/16/2024   scan completed.
