# scan = 408
# date = 8/16/2024
# time = 8:20:21 PM
# proposal = 32912
# experiment = Quantum Phase Transition in Transverse Field Ising Ferromagnet HoV6Sn6
# experiment_number = 1031
# command = scanrel s1 1 -1 0.1
# builtin_command = scan s1 @(s1)+1 @(s1)+-1 0.100000
# users = Aashish Sapkota, Benjamin Ueland, Fei Li, Rob McQueeney, Tianxiong Han
# local_contact = Wei Tian, Bing Li
# scan_title = OP on Hc (2 0 0) H = 2.2 T, T = 0.60704 K
# monochromator = PG002
# analyzer = Pg002
# sense = +-+
# collimation = 40-40-40-80
# samplename = HoV6Sn6
# sampletype = crystal
# samplemosaic = 30.000000
# latticeconstants = 5.520013,5.520013,9.152013,90.000000,90.000000,120.000000
# ubmatrix = 0.015667,0.005926,0.108953,0.208596,0.104928,-0.008180,-0.000560,0.180868,0.001176
# mode = 0
# plane_normal = -0.010528,0.003477,0.999939
# ubconf = UB12Aug2024_54830PM.ini
# preset_type = normal 
# preset_channel = time
# preset_value = 5.000000
# def_x = s1
# def_y = detector
# col_headers = 
#   Pt.         s1       time   detector    monitor        mcu         m2      mag_i         s2        sgl        sgu   slitb_bt   slitb_lf   slitb_rt   slitb_tp   slita_bt   slita_lf   slita_rt   slita_tp        stl        stu         a1         a2          q          h          k          l         ei         ef          e        vti       temp     temp_2         lt         ht      1kpot  sorb_temp       sorb  sample_ht persistent_field
      1  -114.5534      5.000     10.000 198258.000      8.373    41.5367    -0.0000   -59.6975     0.6032     0.1990    22.0000     7.0000     8.0000    22.0000    23.0000     3.0000     7.0000    23.0000    -3.0005     0.0010    20.7694    41.5442     2.6285     1.9995     0.0000     0.0674    14.4503    14.4453     0.0050     1.6704     1.0000     0.0000     0.6060     0.6475     1.7129    16.0035    16.0000     0.0000     2.200
      2  -114.6534      5.000     13.000 199185.000      8.412    41.5367     0.0000   -59.6975     0.6032     0.1990    22.0000     7.0000     8.0000    22.0000    23.0000     3.0000     7.0000    23.0000    -3.0005     0.0010    20.7694    41.5442     2.6285     1.9996     0.0000     0.0607    14.4503    14.4453     0.0050     1.6696     1.0000     0.0000     0.6035     0.6449     1.7126    15.9032    16.0000     0.0000     2.200
      3  -114.7534      5.000     11.000 199171.000      8.411    41.5367    -0.0000   -59.6975     0.6032     0.1990    22.0000     7.0000     8.0000    22.0000    23.0000     3.0000     7.0000    23.0000    -3.0005     0.0010    20.7694    41.5442     2.6285     1.9996     0.0000     0.0540    14.4503    14.4453     0.0050     1.6688     1.0000     0.0000     0.6064     0.6470     1.7120    16.0575    16.0000     0.0000     2.200
      4  -114.8534      5.000     16.000 198487.000      8.382    41.5367    -0.0000   -59.6975     0.6032     0.1990    22.0000     7.0000     8.0000    22.0000    23.0000     3.0000     7.0000    23.0000    -3.0005     0.0010    20.7694    41.5442     2.6285     1.9997     0.0000     0.0473    14.4503    14.4453     0.0050     1.6679     1.0000     0.0000     0.6065     0.6478     1.7103    16.0299    16.0000     0.0000     2.200
      5  -114.9534      5.000     12.000 198009.000      8.362    41.5367     0.0001   -59.6975     0.6032     0.1990    22.0000     7.0000     8.0000    22.0000    23.0000     3.0000     7.0000    23.0000    -3.0005     0.0010    20.7694    41.5442     2.6285     1.9997     0.0000     0.0407    14.4503    14.4453     0.0050     1.6671     1.0000     0.0000     0.6045     0.6461     1.7088    15.9548    16.0000     0.0000     2.200
      6  -115.0534      5.000     14.000 198450.000      8.381    41.5367    -0.0000   -59.6975     0.6032     0.1990    22.0000     7.0000     8.0000    22.0000    23.0000     3.0000     7.0000    23.0000    -3.0005     0.0010    20.7694    41.5442     2.6285     1.9997     0.0000     0.0340    14.4503    14.4453     0.0050     1.6662     1.0000     0.0000     0.6042     0.6449     1.7091    15.9330    16.0000     0.0000     2.200
      7  -115.1534      5.000     19.000 198491.000      8.382    41.5367     0.0000   -59.6975     0.6032     0.1990    22.0000     7.0000     8.0000    22.0000    23.0000     3.0000     7.0000    23.0000    -3.0005     0.0010    20.7694    41.5442     2.6285     1.9998     0.0000     0.0273    14.4503    14.4453     0.0050     1.6654     1.0000     0.0000     0.6063     0.6473     1.7093    16.0538    16.0000     0.0000     2.200
      8  -115.2534      5.000     44.000 199309.000      8.417    41.5367     0.0000   -59.6975     0.6032     0.1990    22.0000     7.0000     8.0000    22.0000    23.0000     3.0000     7.0000    23.0000    -3.0005     0.0010    20.7694    41.5442     2.6285     1.9998     0.0000     0.0206    14.4503    14.4453     0.0050     1.6646     1.0000     0.0000     0.6044     0.6456     1.7066    15.9582    16.0000     0.0000     2.200
      9  -115.3534      5.000    185.000 199044.000      8.406    41.5367    -0.0000   -59.6975     0.6032     0.1990    22.0000     7.0000     8.0000    22.0000    23.0000     3.0000     7.0000    23.0000    -3.0005     0.0010    20.7694    41.5442     2.6285     1.9998     0.0000     0.0139    14.4503    14.4453     0.0050     1.6637     1.0000     0.0000     0.6039     0.6446     1.7063    15.9344    16.0000     0.0000     2.200
     10  -115.4534      5.000    434.000 199169.000      8.411    41.5367     0.0001   -59.6975     0.6032     0.1990    22.0000     7.0000     8.0000    22.0000    23.0000     3.0000     7.0000    23.0000    -3.0005     0.0010    20.7694    41.5442     2.6285     1.9998     0.0000     0.0073    14.4503    14.4453     0.0050     1.6630     1.0000     0.0000     0.6060     0.6472     1.7056    16.0524    16.0000     0.0000     2.200
     11  -115.5534      5.000    520.000 198623.000      8.388    41.5367    -0.0000   -59.6975     0.6032     0.1990    22.0000     7.0000     8.0000    22.0000    23.0000     3.0000     7.0000    23.0000    -3.0005     0.0010    20.7694    41.5442     2.6285     1.9998     0.0000     0.0006    14.4503    14.4453     0.0050     1.6621     1.0000     0.0000     0.6029     0.6442     1.7046    15.9131    16.0000     0.0000     2.200
     12  -115.6534      5.000    354.000 199739.000      8.435    41.5367     0.0001   -59.6975     0.6032     0.1990    22.0000     7.0000     8.0000    22.0000    23.0000     3.0000     7.0000    23.0000    -3.0005     0.0010    20.7694    41.5442     2.6285     1.9998     0.0000    -0.0061    14.4503    14.4453     0.0050     1.6613     1.0000     0.0000     0.6058     0.6469     1.7005    16.0618    16.0000     0.0000     2.200
     13  -115.7534      5.000    141.000 198465.000      8.381    41.5367     0.0001   -59.6975     0.6032     0.1990    22.0000     7.0000     8.0000    22.0000    23.0000     3.0000     7.0000    23.0000    -3.0005     0.0010    20.7694    41.5442     2.6285     1.9998     0.0000    -0.0128    14.4503    14.4453     0.0050     1.6605     1.0000     0.0000     0.6038     0.6452     1.7000    15.9335    16.0000     0.0000     2.200
     14  -115.8534      5.000     46.000 199380.000      8.420    41.5367    -0.0000   -59.6975     0.6032     0.1990    22.0000     7.0000     8.0000    22.0000    23.0000     3.0000     7.0000    23.0000    -3.0005     0.0010    20.7694    41.5442     2.6285     1.9998     0.0000    -0.0195    14.4503    14.4453     0.0050     1.6596     1.0000     0.0000     0.6058     0.6467     1.7006    16.0769    16.0000     0.0000     2.200
     15  -115.9534      5.000     16.000 198201.000      8.370    41.5367    -0.0000   -59.6975     0.6032     0.1990    22.0000     7.0000     8.0000    22.0000    23.0000     3.0000     7.0000    23.0000    -3.0005     0.0010    20.7694    41.5442     2.6285     1.9998     0.0000    -0.0262    14.4503    14.4453     0.0050     1.6589     1.0000     0.0000     0.6054     0.6468     1.6998    16.0310    16.0000     0.0000     2.200
     16  -116.0534      5.000     14.000 198518.000      8.384    41.5367    -0.0000   -59.6975     0.6032     0.1990    22.0000     7.0000     8.0000    22.0000    23.0000     3.0000     7.0000    23.0000    -3.0005     0.0010    20.7694    41.5442     2.6285     1.9997     0.0000    -0.0328    14.4503    14.4453     0.0050     1.6581     1.0000     0.0000     0.6042     0.6458     1.7022    15.9547    16.0000     0.0000     2.200
     17  -116.1534      5.000     10.000 198965.000      8.402    41.5367    -0.0000   -59.6975     0.6032     0.1990    22.0000     7.0000     8.0000    22.0000    23.0000     3.0000     7.0000    23.0000    -3.0005     0.0010    20.7694    41.5442     2.6285     1.9997     0.0000    -0.0395    14.4503    14.4453     0.0050     1.6574     1.0000     0.0000     0.6034     0.6446     1.7004    15.9385    16.0000     0.0000     2.200
     18  -116.2534      5.000      9.000 199210.000      8.413    41.5367    -0.0000   -59.6975     0.6032     0.1990    22.0000     7.0000     8.0000    22.0000    23.0000     3.0000     7.0000    23.0000    -3.0005     0.0010    20.7694    41.5442     2.6285     1.9997     0.0000    -0.0462    14.4503    14.4453     0.0050     1.6567     1.0000     0.0000     0.6046     0.6458     1.6989    16.0232    16.0000     0.0000     2.200
     19  -116.3534      5.000     16.000 197726.000      8.350    41.5367    -0.0000   -59.6975     0.6032     0.1990    22.0000     7.0000     8.0000    22.0000    23.0000     3.0000     7.0000    23.0000    -3.0005     0.0010    20.7694    41.5442     2.6285     1.9996     0.0000    -0.0529    14.4503    14.4453     0.0050     1.6559     1.0000     0.0000     0.6043     0.6455     1.6990    15.9746    16.0000     0.0000     2.200
     20  -116.4534      5.000      9.000 198986.000      8.403    41.5367     0.0001   -59.6975     0.6032     0.1990    22.0000     7.0000     8.0000    22.0000    23.0000     3.0000     7.0000    23.0000    -3.0005     0.0010    20.7694    41.5442     2.6285     1.9996     0.0000    -0.0596    14.4503    14.4453     0.0050     1.6550     1.0000     0.0000     0.6052     0.6463     1.6981    16.0557    16.0000     0.0000     2.200
     21  -116.5534      5.000     13.000 198801.000      8.395    41.5367    -0.0000   -59.6975     0.6032     0.1990    22.0000     7.0000     8.0000    22.0000    23.0000     3.0000     7.0000    23.0000    -3.0005     0.0010    20.7694    41.5442     2.6285     1.9995     0.0000    -0.0662    14.4503    14.4453     0.0050     1.6542     1.0000     0.0000     0.6049     0.6463     1.6981    16.0195    16.0000     0.0000     2.200
# Sum of Counts = 1906
# Center of Mass = -115.542854+/-3.742805
# Full Width Half-Maximum = 0.501159+/-1.283555
# 8:22:40 PM  8/16/2024   scan completed.
