# scan = 415
# date = 8/16/2024
# time = 8:49:08 PM
# proposal = 32912
# experiment = Quantum Phase Transition in Transverse Field Ising Ferromagnet HoV6Sn6
# experiment_number = 1031
# command = scanrel s1 1 -1 0.1
# builtin_command = scan s1 @(s1)+1 @(s1)+-1 0.100000
# users = Aashish Sapkota, Benjamin Ueland, Fei Li, Rob McQueeney, Tianxiong Han
# local_contact = Wei Tian, Bing Li
# scan_title = OP on Hc (2 0 0) H = 2.2 T, T = 1.63548 K
# monochromator = PG002
# analyzer = Pg002
# sense = +-+
# collimation = 40-40-40-80
# samplename = HoV6Sn6
# sampletype = crystal
# samplemosaic = 30.000000
# latticeconstants = 5.520013,5.520013,9.152013,90.000000,90.000000,120.000000
# ubmatrix = 0.015667,0.005926,0.108953,0.208596,0.104928,-0.008180,-0.000560,0.180868,0.001176
# mode = 0
# plane_normal = -0.010528,0.003477,0.999939
# ubconf = UB12Aug2024_54830PM.ini
# preset_type = normal 
# preset_channel = time
# preset_value = 5.000000
# def_x = s1
# def_y = detector
# col_headers = 
#   Pt.         s1       time   detector    monitor        mcu         m2      mag_i         s2        sgl        sgu   slitb_bt   slitb_lf   slitb_rt   slitb_tp   slita_bt   slita_lf   slita_rt   slita_tp        stl        stu         a1         a2          q          h          k          l         ei         ef          e        vti       temp     temp_2         lt         ht      1kpot  sorb_temp       sorb  sample_ht persistent_field
      1  -114.5534      5.000     16.000 198727.000      8.392    41.5367     0.0000   -59.6975     0.6032     0.1990    22.0000     7.0000     8.0000    22.0000    23.0000     3.0000     7.0000    23.0000    -3.0005     0.0010    20.7694    41.5442     2.6285     1.9995     0.0000     0.0674    14.4503    14.4453     0.0050     1.6645     1.0000     0.0000     1.6343     1.6074     1.7138    30.0133    30.0000     0.0000     2.200
      2  -114.6534      5.000     16.000 199432.000      8.422    41.5367     0.0000   -59.6975     0.6032     0.1990    22.0000     7.0000     8.0000    22.0000    23.0000     3.0000     7.0000    23.0000    -3.0005     0.0010    20.7694    41.5442     2.6285     1.9996     0.0000     0.0607    14.4503    14.4453     0.0050     1.6638     1.0000     0.0000     1.6340     1.6070     1.7125    29.9780    30.0000     0.0000     2.200
      3  -114.7534      5.000     18.000 198855.000      8.398    41.5367    -0.0000   -59.6975     0.6032     0.1990    22.0000     7.0000     8.0000    22.0000    23.0000     3.0000     7.0000    23.0000    -3.0005     0.0010    20.7694    41.5442     2.6285     1.9996     0.0000     0.0540    14.4503    14.4453     0.0050     1.6633     1.0000     0.0000     1.6342     1.6072     1.7115    29.9685    30.0000     0.0000     2.200
      4  -114.8534      5.000     14.000 198708.000      8.392    41.5367     0.0000   -59.6975     0.6032     0.1990    22.0000     7.0000     8.0000    22.0000    23.0000     3.0000     7.0000    23.0000    -3.0005     0.0010    20.7694    41.5442     2.6285     1.9997     0.0000     0.0473    14.4503    14.4453     0.0050     1.6628     1.0000     0.0000     1.6345     1.6077     1.7110    29.9546    30.0000     0.0000     2.200
      5  -114.9534      5.000      9.000 198381.000      8.378    41.5367    -0.0001   -59.6975     0.6032     0.1990    22.0000     7.0000     8.0000    22.0000    23.0000     3.0000     7.0000    23.0000    -3.0005     0.0010    20.7694    41.5442     2.6285     1.9997     0.0000     0.0407    14.4503    14.4453     0.0050     1.6623     1.0000     0.0000     1.6349     1.6078     1.7106    29.9519    30.0000     0.0000     2.200
      6  -115.0534      5.000     16.000 200181.000      8.454    41.5367    -0.0000   -59.6975     0.6032     0.1990    22.0000     7.0000     8.0000    22.0000    23.0000     3.0000     7.0000    23.0000    -3.0005     0.0010    20.7694    41.5442     2.6285     1.9997     0.0000     0.0340    14.4503    14.4453     0.0050     1.6617     1.0000     0.0000     1.6358     1.6088     1.7079    29.9355    30.0000     0.0000     2.200
      7  -115.1534      5.000     22.000 198652.000      8.389    41.5367     0.0000   -59.6975     0.6032     0.1990    22.0000     7.0000     8.0000    22.0000    23.0000     3.0000     7.0000    23.0000    -3.0005     0.0010    20.7694    41.5442     2.6285     1.9998     0.0000     0.0273    14.4503    14.4453     0.0050     1.6613     1.0000     0.0000     1.6362     1.6093     1.7075    29.9352    30.0000     0.0000     2.200
      8  -115.2534      5.000     59.000 198045.000      8.364    41.5367    -0.0000   -59.6975     0.6032     0.1990    22.0000     7.0000     8.0000    22.0000    23.0000     3.0000     7.0000    23.0000    -3.0005     0.0010    20.7694    41.5442     2.6285     1.9998     0.0000     0.0206    14.4503    14.4453     0.0050     1.6608     1.0000     0.0000     1.6369     1.6098     1.7073    29.9360    30.0000     0.0000     2.200
      9  -115.3534      5.000    199.000 199374.000      8.420    41.5367     0.0000   -59.6975     0.6032     0.1990    22.0000     7.0000     8.0000    22.0000    23.0000     3.0000     7.0000    23.0000    -3.0005     0.0010    20.7694    41.5442     2.6285     1.9998     0.0000     0.0139    14.4503    14.4453     0.0050     1.6604     1.0000     0.0000     1.6384     1.6115     1.7048    29.9507    30.0000     0.0000     2.200
     10  -115.4534      5.000    426.000 198385.000      8.378    41.5367    -0.0000   -59.6975     0.6032     0.1990    22.0000     7.0000     8.0000    22.0000    23.0000     3.0000     7.0000    23.0000    -3.0005     0.0010    20.7694    41.5442     2.6285     1.9998     0.0000     0.0073    14.4503    14.4453     0.0050     1.6599     1.0000     0.0000     1.6388     1.6119     1.7058    29.9649    30.0000     0.0000     2.200
     11  -115.5534      5.000    528.000 198080.000      8.365    41.5367    -0.0000   -59.6975     0.6032     0.1990    22.0000     7.0000     8.0000    22.0000    23.0000     3.0000     7.0000    23.0000    -3.0005     0.0010    20.7694    41.5442     2.6285     1.9998     0.0000     0.0006    14.4503    14.4453     0.0050     1.6596     1.0000     0.0000     1.6395     1.6126     1.7054    29.9757    30.0000     0.0000     2.200
     12  -115.6534      5.000    331.000 198932.000      8.401    41.5367    -0.0000   -59.6975     0.6032     0.1990    22.0000     7.0000     8.0000    22.0000    23.0000     3.0000     7.0000    23.0000    -3.0005     0.0010    20.7694    41.5442     2.6285     1.9998     0.0000    -0.0061    14.4503    14.4453     0.0050     1.6592     1.0000     0.0000     1.6399     1.6131     1.7045    30.0304    30.0000     0.0000     2.200
     13  -115.7534      5.000    141.000 198995.000      8.404    41.5367     0.0000   -59.6975     0.6032     0.1990    22.0000     7.0000     8.0000    22.0000    23.0000     3.0000     7.0000    23.0000    -3.0005     0.0010    20.7694    41.5442     2.6285     1.9998     0.0000    -0.0128    14.4503    14.4453     0.0050     1.6588     1.0000     0.0000     1.6398     1.6130     1.7044    30.0395    30.0000     0.0000     2.200
     14  -115.8534      5.000     40.000 198572.000      8.386    41.5367     0.0000   -59.6975     0.6032     0.1990    22.0000     7.0000     8.0000    22.0000    23.0000     3.0000     7.0000    23.0000    -3.0005     0.0010    20.7694    41.5442     2.6285     1.9998     0.0000    -0.0195    14.4503    14.4453     0.0050     1.6584     1.0000     0.0000     1.6395     1.6128     1.7041    30.0505    30.0000     0.0000     2.200
     15  -115.9534      5.000     19.000 198529.000      8.384    41.5367     0.0001   -59.6975     0.6032     0.1990    22.0000     7.0000     8.0000    22.0000    23.0000     3.0000     7.0000    23.0000    -3.0005     0.0010    20.7694    41.5442     2.6285     1.9998     0.0000    -0.0262    14.4503    14.4453     0.0050     1.6579     1.0000     0.0000     1.6381     1.6114     1.7023    30.0565    30.0000     0.0000     2.200
     16  -116.0534      5.000     11.000 198123.000      8.367    41.5367    -0.0000   -59.6975     0.6032     0.1990    22.0000     7.0000     8.0000    22.0000    23.0000     3.0000     7.0000    23.0000    -3.0005     0.0010    20.7694    41.5442     2.6285     1.9997     0.0000    -0.0328    14.4503    14.4453     0.0050     1.6576     1.0000     0.0000     1.6377     1.6110     1.7026    30.0522    30.0000     0.0000     2.200
     17  -116.1534      5.000      9.000 198141.000      8.368    41.5367     0.0001   -59.6975     0.6032     0.1990    22.0000     7.0000     8.0000    22.0000    23.0000     3.0000     7.0000    23.0000    -3.0005     0.0010    20.7694    41.5442     2.6285     1.9997     0.0000    -0.0395    14.4503    14.4453     0.0050     1.6572     1.0000     0.0000     1.6374     1.6106     1.7009    30.0422    30.0000     0.0000     2.200
     18  -116.2534      5.000      8.000 198245.000      8.372    41.5367    -0.0000   -59.6975     0.6032     0.1990    22.0000     7.0000     8.0000    22.0000    23.0000     3.0000     7.0000    23.0000    -3.0005     0.0010    20.7694    41.5442     2.6285     1.9997     0.0000    -0.0462    14.4503    14.4453     0.0050     1.6568     1.0000     0.0000     1.6361     1.6094     1.7001    30.0128    30.0000     0.0000     2.200
     19  -116.3534      5.000      7.000 198116.000      8.367    41.5367    -0.0000   -59.6975     0.6032     0.1990    22.0000     7.0000     8.0000    22.0000    23.0000     3.0000     7.0000    23.0000    -3.0005     0.0010    20.7694    41.5442     2.6285     1.9996     0.0000    -0.0529    14.4503    14.4453     0.0050     1.6565     1.0000     0.0000     1.6360     1.6092     1.7000    29.9962    30.0000     0.0000     2.200
     20  -116.4534      5.000     11.000 198272.000      8.373    41.5367    -0.0000   -59.6975     0.6032     0.1990    22.0000     7.0000     8.0000    22.0000    23.0000     3.0000     7.0000    23.0000    -3.0005     0.0010    20.7694    41.5442     2.6285     1.9996     0.0000    -0.0596    14.4503    14.4453     0.0050     1.6561     1.0000     0.0000     1.6358     1.6091     1.6984    29.9795    30.0000     0.0000     2.200
     21  -116.5534      5.000     10.000 198353.000      8.377    41.5367    -0.0000   -59.6975     0.6032     0.1990    22.0000     7.0000     8.0000    22.0000    23.0000     3.0000     7.0000    23.0000    -3.0005     0.0010    20.7694    41.5442     2.6285     1.9995     0.0000    -0.0662    14.4503    14.4453     0.0050     1.6558     1.0000     0.0000     1.6362     1.6092     1.6980    29.9480    30.0000     0.0000     2.200
# Sum of Counts = 1910
# Center of Mass = -115.525128+/-3.738310
# Full Width Half-Maximum = 0.507521+/-1.278691
# 8:51:28 PM  8/16/2024   scan completed.
