# scan = 400
# date = 8/16/2024
# time = 6:57:21 PM
# proposal = 32912
# experiment = Quantum Phase Transition in Transverse Field Ising Ferromagnet HoV6Sn6
# experiment_number = 1031
# command = scanrel s1 1 -1 0.1
# builtin_command = scan s1 @(s1)+1 @(s1)+-1 0.100000
# users = Aashish Sapkota, Benjamin Ueland, Fei Li, Rob McQueeney, Tianxiong Han
# local_contact = Wei Tian, Bing Li
# scan_title = OP on Hc (2 0 0) H = 2 T, T = 2.01802 K
# monochromator = PG002
# analyzer = Pg002
# sense = +-+
# collimation = 40-40-40-80
# samplename = HoV6Sn6
# sampletype = crystal
# samplemosaic = 30.000000
# latticeconstants = 5.520013,5.520013,9.152013,90.000000,90.000000,120.000000
# ubmatrix = 0.015667,0.005926,0.108953,0.208596,0.104928,-0.008180,-0.000560,0.180868,0.001176
# mode = 0
# plane_normal = -0.010528,0.003477,0.999939
# ubconf = UB12Aug2024_54830PM.ini
# preset_type = normal 
# preset_channel = time
# preset_value = 5.000000
# def_x = s1
# def_y = detector
# col_headers = 
#   Pt.         s1       time   detector    monitor        mcu         m2      mag_i         s2        sgl        sgu   slitb_bt   slitb_lf   slitb_rt   slitb_tp   slita_bt   slita_lf   slita_rt   slita_tp        stl        stu         a1         a2          q          h          k          l         ei         ef          e        vti       temp     temp_2         lt         ht      1kpot  sorb_temp       sorb  sample_ht persistent_field
      1  -114.5534      5.000     12.000 198683.000      8.390    41.5367    -0.0000   -59.6975     0.6032     0.1990    22.0000     7.0000     8.0000    22.0000    23.0000     3.0000     7.0000    23.0000    -3.0005     0.0010    20.7694    41.5442     2.6285     1.9995     0.0000     0.0674    14.4503    14.4453     0.0050     1.6479     1.0000     0.0000     2.0773     2.0278     1.9268    34.9655    35.0000     3.5000     2.000
      2  -114.6534      5.000     15.000 198709.000      8.392    41.5367     0.0000   -59.6975     0.6032     0.1990    22.0000     7.0000     8.0000    22.0000    23.0000     3.0000     7.0000    23.0000    -3.0005     0.0010    20.7694    41.5442     2.6285     1.9996     0.0000     0.0607    14.4503    14.4453     0.0050     1.6483     1.0000     0.0000     2.0912     2.0411     1.9370    35.0501    35.0000     3.5000     2.000
      3  -114.7534      5.000     14.000 198523.000      8.384    41.5367    -0.0000   -59.6975     0.6032     0.1990    22.0000     7.0000     8.0000    22.0000    23.0000     3.0000     7.0000    23.0000    -3.0005     0.0010    20.7695    41.5442     2.6285     1.9996     0.0000     0.0540    14.4503    14.4453     0.0050     1.6491     1.0000     0.0000     2.1057     2.0544     1.9473    34.9995    35.0000     3.5000     2.000
      4  -114.8534      5.000     12.000 198095.000      8.366    41.5367    -0.0000   -59.6975     0.6032     0.1990    22.0000     7.0000     8.0000    22.0000    23.0000     3.0000     7.0000    23.0000    -3.0005     0.0010    20.7694    41.5442     2.6285     1.9997     0.0000     0.0473    14.4503    14.4453     0.0050     1.6500     1.0000     0.0000     2.1181     2.0661     1.9558    34.9460    35.0000     3.5000     2.000
      5  -114.9534      5.000     13.000 199264.000      8.415    41.5367    -0.0000   -59.6975     0.6032     0.1990    22.0000     7.0000     8.0000    22.0000    23.0000     3.0000     7.0000    23.0000    -3.0005     0.0010    20.7694    41.5442     2.6285     1.9997     0.0000     0.0407    14.4503    14.4453     0.0050     1.6511     1.0000     0.0000     2.1330     2.0797     1.9662    35.0036    35.0000     3.5000     2.000
      6  -115.0534      5.000     22.000 198997.000      8.404    41.5367     0.0000   -59.6975     0.6032     0.1990    22.0000     7.0000     8.0000    22.0000    23.0000     3.0000     7.0000    23.0000    -3.0005     0.0010    20.7694    41.5442     2.6285     1.9997     0.0000     0.0340    14.4503    14.4453     0.0050     1.6520     1.0000     0.0000     2.1486     2.0945     1.9774    35.0507    35.0000     3.5000     2.000
      7  -115.1534      5.000     17.000 198428.000      8.380    41.5367    -0.0000   -59.6975     0.6032     0.1990    22.0000     7.0000     8.0000    22.0000    23.0000     3.0000     7.0000    23.0000    -3.0005     0.0010    20.7694    41.5442     2.6285     1.9998     0.0000     0.0273    14.4503    14.4453     0.0050     1.6530     1.0000     0.0000     2.1628     2.1096     1.9879    34.9841    35.0000     3.5000     2.000
      8  -115.2534      5.000     45.000 197693.000      8.349    41.5367     0.0001   -59.6975     0.6032     0.1990    22.0000     7.0000     8.0000    22.0000    23.0000     3.0000     7.0000    23.0000    -3.0005     0.0010    20.7695    41.5442     2.6285     1.9998     0.0000     0.0206    14.4503    14.4453     0.0050     1.6540     1.0000     0.0000     2.1759     2.1228     1.9973    34.9502    35.0000     3.5000     2.000
      9  -115.3534      5.000    175.000 199542.000      8.427    41.5367     0.0000   -59.6975     0.6032     0.1990    22.0000     7.0000     8.0000    22.0000    23.0000     3.0000     7.0000    23.0000    -3.0005     0.0010    20.7694    41.5442     2.6285     1.9998     0.0000     0.0139    14.4503    14.4453     0.0050     1.6549     1.0000     0.0000     2.1883     2.1353     2.0067    35.0208    35.0000     3.5000     2.000
     10  -115.4534      5.000    361.000 198072.000      8.365    41.5367     0.0001   -59.6975     0.6032     0.1990    22.0000     7.0000     8.0000    22.0000    23.0000     3.0000     7.0000    23.0000    -3.0005     0.0010    20.7694    41.5442     2.6285     1.9998     0.0000     0.0073    14.4503    14.4453     0.0050     1.6558     1.0000     0.0000     2.2014     2.1489     2.0172    35.0401    35.0000     3.5000     2.000
     11  -115.5534      5.000    448.000 198701.000      8.391    41.5367     0.0001   -59.6975     0.6032     0.1990    22.0000     7.0000     8.0000    22.0000    23.0000     3.0000     7.0000    23.0000    -3.0005     0.0010    20.7694    41.5442     2.6285     1.9998     0.0000     0.0006    14.4503    14.4453     0.0050     1.6568     1.0000     0.0000     2.2134     2.1611     2.0284    34.9760    35.0000     3.5000     2.000
     12  -115.6534      5.000    314.000 199082.000      8.407    41.5367    -0.0000   -59.6975     0.6032     0.1990    22.0000     7.0000     8.0000    22.0000    23.0000     3.0000     7.0000    23.0000    -3.0005     0.0010    20.7694    41.5442     2.6285     1.9998     0.0000    -0.0061    14.4503    14.4453     0.0050     1.6577     1.0000     0.0000     2.2215     2.1694     2.0364    34.9611    35.0000     3.5000     2.000
     13  -115.7534      5.000    143.000 198783.000      8.395    41.5367    -0.0000   -59.6975     0.6032     0.1990    22.0000     7.0000     8.0000    22.0000    23.0000     3.0000     7.0000    23.0000    -3.0005     0.0010    20.7694    41.5442     2.6285     1.9998     0.0000    -0.0128    14.4503    14.4453     0.0050     1.6587     1.0000     0.0000     2.2339     2.1811     2.0460    35.0319    35.0000     3.5000     2.000
     14  -115.8534      5.000     36.000 199011.000      8.404    41.5367    -0.0000   -59.6975     0.6032     0.1990    22.0000     7.0000     8.0000    22.0000    23.0000     3.0000     7.0000    23.0000    -3.0005     0.0010    20.7694    41.5442     2.6285     1.9998     0.0000    -0.0195    14.4503    14.4453     0.0050     1.6595     1.0000     0.0000     2.2460     2.1921     2.0557    35.0141    35.0000     3.5000     2.000
     15  -115.9534      5.000     11.000 198653.000      8.389    41.5367     0.0000   -59.6975     0.6032     0.1990    22.0000     7.0000     8.0000    22.0000    23.0000     3.0000     7.0000    23.0000    -3.0005     0.0010    20.7694    41.5442     2.6285     1.9998     0.0000    -0.0262    14.4503    14.4453     0.0050     1.6604     1.0000     0.0000     2.2565     2.2013     2.0634    34.9581    35.0000     3.5000     2.000
     16  -116.0534      5.000     15.000 199446.000      8.423    41.5367    -0.0000   -59.6975     0.6032     0.1990    22.0000     7.0000     8.0000    22.0000    23.0000     3.0000     7.0000    23.0000    -3.0005     0.0010    20.7694    41.5442     2.6285     1.9997     0.0000    -0.0328    14.4503    14.4453     0.0050     1.6613     1.0000     0.0000     2.2648     2.2092     2.0708    34.9938    35.0000     3.5000     2.000
     17  -116.1534      5.000     11.000 198440.000      8.380    41.5367     0.0001   -59.6975     0.6032     0.1990    22.0000     7.0000     8.0000    22.0000    23.0000     3.0000     7.0000    23.0000    -3.0005     0.0010    20.7694    41.5442     2.6285     1.9997     0.0000    -0.0395    14.4503    14.4453     0.0050     1.6622     1.0000     0.0000     2.2713     2.2146     2.0797    35.0425    35.0000     3.5000     2.000
     18  -116.2534      5.000     17.000 199185.000      8.412    41.5367    -0.0000   -59.6975     0.6032     0.1990    22.0000     7.0000     8.0000    22.0000    23.0000     3.0000     7.0000    23.0000    -3.0005     0.0010    20.7694    41.5442     2.6285     1.9997     0.0000    -0.0462    14.4503    14.4453     0.0050     1.6631     1.0000     0.0000     2.2701     2.2136     2.0872    34.9935    35.0000     3.5000     2.000
     19  -116.3534      5.000     13.000 198564.000      8.385    41.5367    -0.0000   -59.6975     0.6032     0.1990    22.0000     7.0000     8.0000    22.0000    23.0000     3.0000     7.0000    23.0000    -3.0005     0.0010    20.7694    41.5442     2.6285     1.9996     0.0000    -0.0529    14.4503    14.4453     0.0050     1.6641     1.0000     0.0000     2.2746     2.2180     2.0933    34.9576    35.0000     3.5000     2.000
     20  -116.4534      5.000     10.000 198009.000      8.362    41.5367    -0.0000   -59.6975     0.6032     0.1990    22.0000     7.0000     8.0000    22.0000    23.0000     3.0000     7.0000    23.0000    -3.0005     0.0010    20.7694    41.5442     2.6285     1.9996     0.0000    -0.0596    14.4503    14.4453     0.0050     1.6651     1.0000     0.0000     2.2818     2.2244     2.1009    35.0176    35.0000     3.5000     2.000
     21  -116.5534      5.000     10.000 198744.000      8.393    41.5367    -0.0000   -59.6975     0.6032     0.1990    22.0000     7.0000     8.0000    22.0000    23.0000     3.0000     7.0000    23.0000    -3.0005     0.0010    20.7694    41.5442     2.6285     1.9995     0.0000    -0.0662    14.4503    14.4453     0.0050     1.6659     1.0000     0.0000     2.2910     2.2323     2.1080    35.0268    35.0000     3.5000     2.000
# Sum of Counts = 1714
# Center of Mass = -115.538989+/-3.946742
# Full Width Half-Maximum = 0.534709+/-1.319568
# 6:59:37 PM  8/16/2024   scan completed.
