# scan = 414
# date = 8/16/2024
# time = 8:45:01 PM
# proposal = 32912
# experiment = Quantum Phase Transition in Transverse Field Ising Ferromagnet HoV6Sn6
# experiment_number = 1031
# command = scanrel s1 1 -1 0.1
# builtin_command = scan s1 @(s1)+1 @(s1)+-1 0.100000
# users = Aashish Sapkota, Benjamin Ueland, Fei Li, Rob McQueeney, Tianxiong Han
# local_contact = Wei Tian, Bing Li
# scan_title = OP on Hc (2 0 0) H = 2.2 T, T = 1.52717 K
# monochromator = PG002
# analyzer = Pg002
# sense = +-+
# collimation = 40-40-40-80
# samplename = HoV6Sn6
# sampletype = crystal
# samplemosaic = 30.000000
# latticeconstants = 5.520013,5.520013,9.152013,90.000000,90.000000,120.000000
# ubmatrix = 0.015667,0.005926,0.108953,0.208596,0.104928,-0.008180,-0.000560,0.180868,0.001176
# mode = 0
# plane_normal = -0.010528,0.003477,0.999939
# ubconf = UB12Aug2024_54830PM.ini
# preset_type = normal 
# preset_channel = time
# preset_value = 5.000000
# def_x = s1
# def_y = detector
# col_headers = 
#   Pt.         s1       time   detector    monitor        mcu         m2      mag_i         s2        sgl        sgu   slitb_bt   slitb_lf   slitb_rt   slitb_tp   slita_bt   slita_lf   slita_rt   slita_tp        stl        stu         a1         a2          q          h          k          l         ei         ef          e        vti       temp     temp_2         lt         ht      1kpot  sorb_temp       sorb  sample_ht persistent_field
      1  -114.5534      5.000      9.000 198044.000      8.363    41.5367    -0.0000   -59.6975     0.6032     0.1990    22.0000     7.0000     8.0000    22.0000    23.0000     3.0000     7.0000    23.0000    -3.0005     0.0010    20.7694    41.5442     2.6285     1.9995     0.0000     0.0674    14.4503    14.4453     0.0050     1.6640     1.0000     0.0000     1.5298     1.5074     1.7145    28.0112    28.0000     0.0000     2.200
      2  -114.6534      5.000     12.000 198558.000      8.385    41.5367     0.0000   -59.6975     0.6032     0.1990    22.0000     7.0000     8.0000    22.0000    23.0000     3.0000     7.0000    23.0000    -3.0005     0.0010    20.7694    41.5442     2.6285     1.9996     0.0000     0.0607    14.4503    14.4453     0.0050     1.6634     1.0000     0.0000     1.5295     1.5072     1.7140    28.0658    28.0000     0.0000     2.200
      3  -114.7534      5.000     10.000 200106.000      8.451    41.5367    -0.0000   -59.6975     0.6032     0.1990    22.0000     7.0000     8.0000    22.0000    23.0000     3.0000     7.0000    23.0000    -3.0005     0.0010    20.7694    41.5442     2.6285     1.9996     0.0000     0.0540    14.4503    14.4453     0.0050     1.6628     1.0000     0.0000     1.5272     1.5051     1.7125    28.0448    28.0000     0.0000     2.200
      4  -114.8534      5.000     11.000 198657.000      8.389    41.5367     0.0000   -59.6975     0.6032     0.1990    22.0000     7.0000     8.0000    22.0000    23.0000     3.0000     7.0000    23.0000    -3.0005     0.0010    20.7694    41.5442     2.6285     1.9997     0.0000     0.0473    14.4503    14.4453     0.0050     1.6623     1.0000     0.0000     1.5256     1.5036     1.7107    27.9597    28.0000     0.0000     2.200
      5  -114.9534      5.000     18.000 198065.000      8.364    41.5367    -0.0000   -59.6975     0.6032     0.1990    22.0000     7.0000     8.0000    22.0000    23.0000     3.0000     7.0000    23.0000    -3.0005     0.0010    20.7694    41.5442     2.6285     1.9997     0.0000     0.0407    14.4503    14.4453     0.0050     1.6618     1.0000     0.0000     1.5283     1.5058     1.7105    27.9289    28.0000     0.0000     2.200
      6  -115.0534      5.000     15.000 199473.000      8.424    41.5367     0.0001   -59.6975     0.6032     0.1990    22.0000     7.0000     8.0000    22.0000    23.0000     3.0000     7.0000    23.0000    -3.0005     0.0010    20.7694    41.5442     2.6285     1.9997     0.0000     0.0340    14.4503    14.4453     0.0050     1.6613     1.0000     0.0000     1.5316     1.5090     1.7098    27.9830    28.0000     0.0000     2.200
      7  -115.1534      5.000     23.000 199620.000      8.430    41.5367    -0.0000   -59.6975     0.6032     0.1990    22.0000     7.0000     8.0000    22.0000    23.0000     3.0000     7.0000    23.0000    -3.0005     0.0010    20.7694    41.5442     2.6285     1.9998     0.0000     0.0273    14.4503    14.4453     0.0050     1.6608     1.0000     0.0000     1.5309     1.5083     1.7078    28.0659    28.0000     0.0000     2.200
      8  -115.2534      5.000     64.000 199239.000      8.414    41.5367    -0.0000   -59.6975     0.6032     0.1990    22.0000     7.0000     8.0000    22.0000    23.0000     3.0000     7.0000    23.0000    -3.0005     0.0010    20.7694    41.5442     2.6285     1.9998     0.0000     0.0206    14.4503    14.4453     0.0050     1.6603     1.0000     0.0000     1.5282     1.5060     1.7049    28.0145    28.0000     0.0000     2.200
      9  -115.3534      5.000    179.000 198665.000      8.390    41.5367     0.0000   -59.6975     0.6032     0.1990    22.0000     7.0000     8.0000    22.0000    23.0000     3.0000     7.0000    23.0000    -3.0005     0.0010    20.7694    41.5442     2.6285     1.9998     0.0000     0.0139    14.4503    14.4453     0.0050     1.6598     1.0000     0.0000     1.5277     1.5056     1.7030    27.9408    28.0000     0.0000     2.200
     10  -115.4534      5.000    400.000 199707.000      8.434    41.5367    -0.0000   -59.6975     0.6032     0.1990    22.0000     7.0000     8.0000    22.0000    23.0000     3.0000     7.0000    23.0000    -3.0005     0.0010    20.7694    41.5442     2.6285     1.9998     0.0000     0.0073    14.4503    14.4453     0.0050     1.6594     1.0000     0.0000     1.5328     1.5101     1.7045    27.9818    28.0000     0.0000     2.200
     11  -115.5534      5.000    492.000 197571.000      8.344    41.5367    -0.0000   -59.6975     0.6032     0.1990    22.0000     7.0000     8.0000    22.0000    23.0000     3.0000     7.0000    23.0000    -3.0005     0.0010    20.7694    41.5442     2.6285     1.9998     0.0000     0.0006    14.4503    14.4453     0.0050     1.6589     1.0000     0.0000     1.5333     1.5107     1.7038    28.0528    28.0000     0.0000     2.200
     12  -115.6534      5.000    322.000 198825.000      8.396    41.5367     0.0001   -59.6975     0.6032     0.1990    22.0000     7.0000     8.0000    22.0000    23.0000     3.0000     7.0000    23.0000    -3.0005     0.0010    20.7694    41.5442     2.6285     1.9998     0.0000    -0.0061    14.4503    14.4453     0.0050     1.6586     1.0000     0.0000     1.5311     1.5088     1.7019    28.0598    28.0000     0.0000     2.200
     13  -115.7534      5.000    133.000 198633.000      8.388    41.5367     0.0001   -59.6975     0.6032     0.1990    22.0000     7.0000     8.0000    22.0000    23.0000     3.0000     7.0000    23.0000    -3.0005     0.0010    20.7694    41.5442     2.6285     1.9998     0.0000    -0.0128    14.4503    14.4453     0.0050     1.6581     1.0000     0.0000     1.5284     1.5061     1.7006    27.9722    28.0000     0.0000     2.200
     14  -115.8534      5.000     43.000 199019.000      8.405    41.5367    -0.0000   -59.6975     0.6032     0.1990    22.0000     7.0000     8.0000    22.0000    23.0000     3.0000     7.0000    23.0000    -3.0005     0.0010    20.7694    41.5442     2.6285     1.9998     0.0000    -0.0195    14.4503    14.4453     0.0050     1.6577     1.0000     0.0000     1.5305     1.5083     1.7022    27.9321    28.0000     0.0000     2.200
     15  -115.9534      5.000      7.000 198476.000      8.382    41.5367    -0.0000   -59.6975     0.6032     0.1990    22.0000     7.0000     8.0000    22.0000    23.0000     3.0000     7.0000    23.0000    -3.0005     0.0010    20.7694    41.5442     2.6285     1.9998     0.0000    -0.0262    14.4503    14.4453     0.0050     1.6573     1.0000     0.0000     1.5339     1.5114     1.7017    27.9961    28.0000     0.0000     2.200
     16  -116.0534      5.000     10.000 198795.000      8.395    41.5367     0.0001   -59.6975     0.6032     0.1990    22.0000     7.0000     8.0000    22.0000    23.0000     3.0000     7.0000    23.0000    -3.0005     0.0010    20.7694    41.5442     2.6285     1.9997     0.0000    -0.0328    14.4503    14.4453     0.0050     1.6569     1.0000     0.0000     1.5326     1.5102     1.7012    28.0645    28.0000     0.0000     2.200
     17  -116.1534      5.000     15.000 199626.000      8.430    41.5367     0.0000   -59.6975     0.6032     0.1990    22.0000     7.0000     8.0000    22.0000    23.0000     3.0000     7.0000    23.0000    -3.0005     0.0010    20.7694    41.5442     2.6285     1.9997     0.0000    -0.0395    14.4503    14.4453     0.0050     1.6565     1.0000     0.0000     1.5298     1.5076     1.7001    28.0171    28.0000     0.0000     2.200
     18  -116.2534      5.000     19.000 198946.000      8.402    41.5367    -0.0000   -59.6975     0.6032     0.1990    22.0000     7.0000     8.0000    22.0000    23.0000     3.0000     7.0000    23.0000    -3.0005     0.0010    20.7694    41.5442     2.6285     1.9997     0.0000    -0.0462    14.4503    14.4453     0.0050     1.6562     1.0000     0.0000     1.5290     1.5070     1.6987    27.9486    28.0000     0.0000     2.200
     19  -116.3534      5.000      9.000 198573.000      8.386    41.5367    -0.0000   -59.6975     0.6032     0.1990    22.0000     7.0000     8.0000    22.0000    23.0000     3.0000     7.0000    23.0000    -3.0005     0.0010    20.7694    41.5442     2.6285     1.9996     0.0000    -0.0529    14.4503    14.4453     0.0050     1.6558     1.0000     0.0000     1.5318     1.5091     1.6993    27.9374    28.0000     0.0000     2.200
     20  -116.4534      5.000     15.000 197247.000      8.330    41.5367    -0.0000   -59.6975     0.6032     0.1990    22.0000     7.0000     8.0000    22.0000    23.0000     3.0000     7.0000    23.0000    -3.0005     0.0010    20.7694    41.5442     2.6285     1.9996     0.0000    -0.0596    14.4503    14.4453     0.0050     1.6554     1.0000     0.0000     1.5348     1.5120     1.7004    28.0181    28.0000     0.0000     2.200
     21  -116.5534      5.000     18.000 198722.000      8.392    41.5367     0.0001   -59.6975     0.6032     0.1990    22.0000     7.0000     8.0000    22.0000    23.0000     3.0000     7.0000    23.0000    -3.0005     0.0010    20.7694    41.5442     2.6285     1.9995     0.0000    -0.0662    14.4503    14.4453     0.0050     1.6551     1.0000     0.0000     1.5339     1.5114     1.6986    28.0630    28.0000     0.0000     2.200
# Sum of Counts = 1824
# Center of Mass = -115.543806+/-3.826043
# Full Width Half-Maximum = 0.529445+/-1.274580
# 8:47:20 PM  8/16/2024   scan completed.
