# scan = 426
# date = 8/17/2024
# time = 3:49:56 AM
# proposal = 32912
# experiment = Quantum Phase Transition in Transverse Field Ising Ferromagnet HoV6Sn6
# experiment_number = 1031
# command = scan mag_i 0 5.5 0.05 preset time 10
# builtin_command = scan mag_i 0 5.5 0.05 preset time 10
# users = Aashish Sapkota, Benjamin Ueland, Fei Li, Rob McQueeney, Tianxiong Han
# local_contact = Wei Tian, Bing Li
# scan_title = HoV6Sn6, field dependence of (@h) 0.00001 0.00057), T = 0.52471 K
# monochromator = PG002
# analyzer = Pg002
# sense = +-+
# collimation = 40-40-40-80
# samplename = HoV6Sn6
# sampletype = crystal
# samplemosaic = 30.000000
# latticeconstants = 5.520013,5.520013,9.152013,90.000000,90.000000,120.000000
# ubmatrix = 0.015667,0.005926,0.108953,0.208596,0.104928,-0.008180,-0.000560,0.180868,0.001176
# mode = 0
# plane_normal = -0.010528,0.003477,0.999939
# ubconf = UB12Aug2024_54830PM.ini
# preset_type = normal
# preset_channel = time
# preset_value = 10.000000
# def_x = mag_i
# def_y = detector
# col_headers =
#   Pt.      mag_i       time   detector    monitor        mcu         m2         s1         s2        sgl        sgu   slitb_bt   slitb_lf   slitb_rt   slitb_tp   slita_bt   slita_lf   slita_rt   slita_tp        stl        stu         a1         a2          q          h          k          l         ei         ef          e        vti       temp     temp_2         lt         ht      1kpot  sorb_temp       sorb  sample_ht persistent_field
      1    -0.0000     10.000      0.000    389.000      0.016    41.5367  -115.5534   -59.6975     0.6032     0.1990    22.0000     7.0000     8.0000    22.0000    23.0000     3.0000     7.0000    23.0000    -3.0005     0.0010    20.7694    41.5442     2.6285     1.9998     0.0000     0.0006    14.4503    14.4453     0.0050     1.6656     1.0000     0.0000     0.5260     0.5216     1.7160    14.2491    14.0000     0.0000    -0.000
      2     0.0501     10.000      0.000    382.000      0.016    41.5367  -115.5534   -59.6975     0.6032     0.1990    22.0000     7.0000     8.0000    22.0000    23.0000     3.0000     7.0000    23.0000    -3.0005     0.0010    20.7694    41.5441     2.6285     1.9998     0.0000     0.0006    14.4503    14.4453     0.0050     1.6636     1.0000     0.0000     0.5267     0.5227     1.7119    14.1692    14.0000     0.0000     0.050
      3     0.1001     10.000      0.000    346.000      0.015    41.5367  -115.5534   -59.6975     0.6032     0.1990    22.0000     7.0000     8.0000    22.0000    23.0000     3.0000     7.0000    23.0000    -3.0005     0.0010    20.7694    41.5442     2.6285     1.9998     0.0000     0.0006    14.4503    14.4453     0.0050     1.6616     1.0000     0.0000     0.5245     0.5202     1.7119    14.1946    14.0000     0.0000     0.100
      4     0.1500     10.000      0.000    321.000      0.014    41.5367  -115.5534   -59.6975     0.6032     0.1990    22.0000     7.0000     8.0000    22.0000    23.0000     3.0000     7.0000    23.0000    -3.0005     0.0010    20.7694    41.5441     2.6285     1.9998     0.0000     0.0006    14.4503    14.4453     0.0050     1.6592     1.0000     0.0000     0.5244     0.5208     1.7068    13.8045    14.0000     0.0000     0.150
      5     0.2001     10.000      1.000    308.000      0.013    41.5367  -115.5534   -59.6975     0.6032     0.1990    22.0000     7.0000     8.0000    22.0000    23.0000     3.0000     7.0000    23.0000    -3.0005     0.0010    20.7694    41.5441     2.6285     1.9998     0.0000     0.0006    14.4503    14.4453     0.0050     1.6575     1.0000     0.0000     0.5273     0.5239     1.7063    14.2210    14.0000     0.0000     0.200
      6     0.2501     10.000      0.000    275.000      0.012    41.5367  -115.5534   -59.6975     0.6032     0.1990    22.0000     7.0000     8.0000    22.0000    23.0000     3.0000     7.0000    23.0000    -3.0005     0.0010    20.7694    41.5442     2.6285     1.9998     0.0000     0.0006    14.4503    14.4453     0.0050     1.6557     1.0000     0.0000     0.5264     0.5244     1.7037    14.0177    14.0000     0.0000     0.250
      7     0.3001     10.000      0.000    294.000      0.012    41.5367  -115.5534   -59.6975     0.6032     0.1990    22.0000     7.0000     8.0000    22.0000    23.0000     3.0000     7.0000    23.0000    -3.0005     0.0010    20.7694    41.5441     2.6285     1.9998     0.0000     0.0006    14.4503    14.4453     0.0050     1.6538     1.0000     0.0000     0.5281     0.5259     1.7033    14.2961    14.0000     0.0000     0.300
      8     0.3500     10.000      0.000    269.000      0.011    41.5367  -115.5534   -59.6975     0.6032     0.1990    22.0000     7.0000     8.0000    22.0000    23.0000     3.0000     7.0000    23.0000    -3.0005     0.0010    20.7694    41.5441     2.6285     1.9998     0.0000     0.0006    14.4503    14.4453     0.0050     1.6518     1.0000     0.0000     0.5291     0.5282     1.6999    14.2650    14.0000     0.0000     0.350
      9     0.4001     10.000      0.000    314.000      0.013    41.5367  -115.5534   -59.6975     0.6032     0.1990    22.0000     7.0000     8.0000    22.0000    23.0000     3.0000     7.0000    23.0000    -3.0005     0.0010    20.7694    41.5441     2.6285     1.9998     0.0000     0.0006    14.4503    14.4453     0.0050     1.6502     1.0000     0.0000     0.5282     0.5291     1.6959    14.0512    14.0000     0.0000     0.400
     10     0.4501     10.000      0.000    301.000      0.013    41.5367  -115.5534   -59.6975     0.6032     0.1990    22.0000     7.0000     8.0000    22.0000    23.0000     3.0000     7.0000    23.0000    -3.0005     0.0010    20.7694    41.5441     2.6285     1.9998     0.0000     0.0006    14.4503    14.4453     0.0050     1.6471     1.0000     0.0000     0.5293     0.5307     1.6942    14.2571    14.0000     0.0000     0.450
     11     0.5001     10.000      0.000    271.000      0.011    41.5367  -115.5534   -59.6975     0.6032     0.1990    22.0000     7.0000     8.0000    22.0000    23.0000     3.0000     7.0000    23.0000    -3.0005     0.0010    20.7694    41.5441     2.6285     1.9998     0.0000     0.0006    14.4503    14.4453     0.0050     1.6413     1.0000     0.0000     0.5272     0.5300     1.6924    14.2819    14.0000     0.0000     0.500
     12     0.5501     10.000      0.000    273.000      0.012    41.5367  -115.5534   -59.6975     0.6032     0.1990    22.0000     7.0000     8.0000    22.0000    23.0000     3.0000     7.0000    23.0000    -3.0005     0.0010    20.7694    41.5441     2.6285     1.9998     0.0000     0.0006    14.4503    14.4453     0.0050     1.6371     1.0000     0.0000     0.5298     0.5340     1.6861    14.1742    14.0000     0.0000     0.550
     13     0.6002     10.000      0.000    244.000      0.010    41.5367  -115.5534   -59.6975     0.6032     0.1990    22.0000     7.0000     8.0000    22.0000    23.0000     3.0000     7.0000    23.0000    -3.0005     0.0010    20.7694    41.5441     2.6285     1.9998     0.0000     0.0006    14.4503    14.4453     0.0050     1.6372     1.0000     0.0000     0.5267     0.5328     1.6848    13.9442    14.0000     0.0000     0.600
     14     0.6501     10.000      0.000    273.000      0.012    41.5367  -115.5534   -59.6975     0.6032     0.1990    22.0000     7.0000     8.0000    22.0000    23.0000     3.0000     7.0000    23.0000    -3.0005     0.0010    20.7694    41.5441     2.6285     1.9998     0.0000     0.0006    14.4503    14.4453     0.0050     1.6388     1.0000     0.0000     0.5303     0.5371     1.6875    14.2117    14.0000     0.0000     0.650
     15     0.7000     10.000      0.000    237.000      0.010    41.5367  -115.5534   -59.6975     0.6032     0.1990    22.0000     7.0000     8.0000    22.0000    23.0000     3.0000     7.0000    23.0000    -3.0005     0.0010    20.7694    41.5441     2.6285     1.9998     0.0000     0.0006    14.4503    14.4453     0.0050     1.6428     1.0000     0.0000     0.5299     0.5377     1.6907    14.2900    14.0000     0.0000     0.700
     16     0.7501     10.000      0.000    258.000      0.011    41.5367  -115.5534   -59.6975     0.6032     0.1990    22.0000     7.0000     8.0000    22.0000    23.0000     3.0000     7.0000    23.0000    -3.0005     0.0010    20.7694    41.5441     2.6285     1.9998     0.0000     0.0006    14.4503    14.4453     0.0050     1.6454     1.0000     0.0000     0.5301     0.5398     1.6935    14.1017    14.0000     0.0000     0.750
     17     0.8001     10.000      0.000    247.000      0.010    41.5367  -115.5534   -59.6975     0.6032     0.1990    22.0000     7.0000     8.0000    22.0000    23.0000     3.0000     7.0000    23.0000    -3.0005     0.0010    20.7694    41.5441     2.6285     1.9998     0.0000     0.0006    14.4503    14.4453     0.0050     1.6486     1.0000     0.0000     0.5309     0.5415     1.6961    14.2827    14.0000     0.0000     0.800
     18     0.8501     10.000      0.000    254.000      0.011    41.5367  -115.5534   -59.6975     0.6032     0.1990    22.0000     7.0000     8.0000    22.0000    23.0000     3.0000     7.0000    23.0000    -3.0005     0.0010    20.7694    41.5441     2.6285     1.9998     0.0000     0.0006    14.4503    14.4453     0.0049     1.6513     1.0000     0.0000     0.5275     0.5402     1.6997    13.9393    14.0000     0.0000     0.850
     19     0.9000     10.000      0.000    235.000      0.010    41.5367  -115.5534   -59.6975     0.6032     0.1990    22.0000     7.0000     8.0000    22.0000    23.0000     3.0000     7.0000    23.0000    -3.0005     0.0010    20.7694    41.5441     2.6285     1.9998     0.0000     0.0006    14.4503    14.4453     0.0050     1.6538     1.0000     0.0000     0.5307     0.5438     1.7011    14.2896    14.0000     0.0000     0.900
     20     0.9501     10.000      0.000    261.000      0.011    41.5367  -115.5534   -59.6975     0.6032     0.1990    22.0000     7.0000     8.0000    22.0000    23.0000     3.0000     7.0000    23.0000    -3.0005     0.0010    20.7694    41.5441     2.6285     1.9998     0.0000     0.0006    14.4503    14.4453     0.0050     1.6554     1.0000     0.0000     0.5288     0.5438     1.7025    13.9873    14.0000     0.0000     0.950
     21     1.0001     10.000      0.000    233.000      0.010    41.5367  -115.5534   -59.6975     0.6032     0.1990    22.0000     7.0000     8.0000    22.0000    23.0000     3.0000     7.0000    23.0000    -3.0005     0.0010    20.7694    41.5441     2.6285     1.9998     0.0000     0.0006    14.4503    14.4453     0.0050     1.6556     1.0000     0.0000     0.5289     0.5460     1.7022    13.9461    14.0000     0.0000     1.000
     22     1.0500     10.000      0.000    207.000      0.009    41.5367  -115.5534   -59.6975     0.6032     0.1990    22.0000     7.0000     8.0000    22.0000    23.0000     3.0000     7.0000    23.0000    -3.0005     0.0010    20.7694    41.5441     2.6285     1.9998     0.0000     0.0006    14.4503    14.4453     0.0049     1.6557     1.0000     0.0000     0.5294     0.5471     1.7024    14.0132    14.0000     0.0000     1.050
     23     1.1001     10.000      0.000    236.000      0.010    41.5367  -115.5534   -59.6975     0.6032     0.1990    22.0000     7.0000     8.0000    22.0000    23.0000     3.0000     7.0000    23.0000    -3.0005     0.0010    20.7694    41.5441     2.6285     1.9998     0.0000     0.0006    14.4503    14.4453     0.0050     1.6556     1.0000     0.0000     0.5303     0.5501     1.7038    14.0217    14.0000     0.0000     1.100
     24     1.1501     10.000      0.000    253.000      0.011    41.5367  -115.5534   -59.6975     0.6032     0.1990    22.0000     7.0000     8.0000    22.0000    23.0000     3.0000     7.0000    23.0000    -3.0005     0.0010    20.7694    41.5441     2.6285     1.9998     0.0000     0.0006    14.4503    14.4453     0.0049     1.6557     1.0000     0.0000     0.5316     0.5523     1.7029    14.0909    14.0000     0.0000     1.150
     25     1.2001     10.000      0.000    265.000      0.011    41.5367  -115.5534   -59.6975     0.6032     0.1990    22.0000     7.0000     8.0000    22.0000    23.0000     3.0000     7.0000    23.0000    -3.0005     0.0010    20.7694    41.5441     2.6285     1.9998     0.0000     0.0006    14.4503    14.4453     0.0050     1.6557     1.0000     0.0000     0.5302     0.5517     1.7037    14.2813    14.0000     0.0000     1.200
     26     1.2500     10.000      0.000    231.000      0.010    41.5367  -115.5534   -59.6975     0.6032     0.1990    22.0000     7.0000     8.0000    22.0000    23.0000     3.0000     7.0000    23.0000    -3.0005     0.0010    20.7694    41.5441     2.6285     1.9998     0.0000     0.0006    14.4503    14.4453     0.0049     1.6557     1.0000     0.0000     0.5305     0.5544     1.7042    14.0051    14.0000     0.0000     1.250
     27     1.3001     10.000      0.000    240.000      0.010    41.5367  -115.5534   -59.6975     0.6032     0.1990    22.0000     7.0000     8.0000    22.0000    23.0000     3.0000     7.0000    23.0000    -3.0005     0.0010    20.7694    41.5441     2.6285     1.9998     0.0000     0.0006    14.4503    14.4453     0.0050     1.6555     1.0000     0.0000     0.5319     0.5560     1.7008    14.2893    14.0000     0.0000     1.300
     28     1.3501     10.000      0.000    225.000      0.010    41.5367  -115.5534   -59.6975     0.6032     0.1990    22.0000     7.0000     8.0000    22.0000    23.0000     3.0000     7.0000    23.0000    -3.0005     0.0010    20.7694    41.5441     2.6285     1.9998     0.0000     0.0006    14.4503    14.4453     0.0050     1.6561     1.0000     0.0000     0.5295     0.5559     1.7030    13.9425    14.0000     0.0000     1.350
     29     1.4001     10.000      1.000    230.000      0.010    41.5367  -115.5534   -59.6975     0.6032     0.1990    22.0000     7.0000     8.0000    22.0000    23.0000     3.0000     7.0000    23.0000    -3.0005     0.0010    20.7694    41.5441     2.6285     1.9998     0.0000     0.0006    14.4503    14.4453     0.0050     1.6563     1.0000     0.0000     0.5326     0.5599     1.7008    14.0958    14.0000     0.0000     1.400
     30     1.4501     10.000      0.000    240.000      0.010    41.5367  -115.5534   -59.6975     0.6032     0.1990    22.0000     7.0000     8.0000    22.0000    23.0000     3.0000     7.0000    23.0000    -3.0005     0.0010    20.7694    41.5441     2.6285     1.9998     0.0000     0.0006    14.4503    14.4453     0.0050     1.6561     1.0000     0.0000     0.5301     0.5588     1.7010    13.9744    14.0000     0.0000     1.450
     31     1.5001     10.000      0.000    249.000      0.011    41.5367  -115.5534   -59.6975     0.6032     0.1990    22.0000     7.0000     8.0000    22.0000    23.0000     3.0000     7.0000    23.0000    -3.0005     0.0010    20.7694    41.5441     2.6285     1.9998     0.0000     0.0006    14.4503    14.4453     0.0050     1.6559     1.0000     0.0000     0.5318     0.5620     1.7010    14.0443    14.0000     0.0000     1.500
     32     1.5501     10.000      0.000    239.000      0.010    41.5367  -115.5534   -59.6975     0.6032     0.1990    22.0000     7.0000     8.0000    22.0000    23.0000     3.0000     7.0000    23.0000    -3.0005     0.0010    20.7694    41.5441     2.6285     1.9998     0.0000     0.0006    14.4503    14.4453     0.0050     1.6556     1.0000     0.0000     0.5334     0.5642     1.7018    14.2265    14.0000     0.0000     1.550
     33     1.6001     10.000      0.000    201.000      0.008    41.5367  -115.5534   -59.6975     0.6032     0.1990    22.0000     7.0000     8.0000    22.0000    23.0000     3.0000     7.0000    23.0000    -3.0005     0.0010    20.7694    41.5441     2.6285     1.9998     0.0000     0.0006    14.4503    14.4453     0.0049     1.6560     1.0000     0.0000     0.5306     0.5627     1.7021    13.9769    14.0000     0.0000     1.600
     34     1.6501     10.000      0.000    241.000      0.010    41.5367  -115.5534   -59.6975     0.6032     0.1990    22.0000     7.0000     8.0000    22.0000    23.0000     3.0000     7.0000    23.0000    -3.0005     0.0010    20.7694    41.5441     2.6285     1.9998     0.0000     0.0006    14.4503    14.4453     0.0050     1.6562     1.0000     0.0000     0.5335     0.5670     1.7014    14.1454    14.0000     0.0000     1.650
     35     1.7001     10.000      0.000    225.000      0.010    41.5367  -115.5534   -59.6975     0.6032     0.1990    22.0000     7.0000     8.0000    22.0000    23.0000     3.0000     7.0000    23.0000    -3.0005     0.0010    20.7694    41.5441     2.6285     1.9998     0.0000     0.0006    14.4503    14.4453     0.0049     1.6560     1.0000     0.0000     0.5313     0.5657     1.7029    14.2702    14.0000     0.0000     1.700
     36     1.7501     10.000      0.000    203.000      0.009    41.5367  -115.5534   -59.6975     0.6032     0.1990    22.0000     7.0000     8.0000    22.0000    23.0000     3.0000     7.0000    23.0000    -3.0005     0.0010    20.7694    41.5441     2.6285     1.9998     0.0000     0.0006    14.4503    14.4453     0.0050     1.6564     1.0000     0.0000     0.5327     0.5689     1.7024    14.0401    14.0000     0.0000     1.750
     37     1.8002     10.000      0.000    239.000      0.010    41.5367  -115.5534   -59.6975     0.6032     0.1990    22.0000     7.0000     8.0000    22.0000    23.0000     3.0000     7.0000    23.0000    -3.0005     0.0010    20.7694    41.5442     2.6285     1.9998     0.0000     0.0006    14.4503    14.4453     0.0050     1.6565     1.0000     0.0000     0.5339     0.5706     1.7006    14.2855    14.0000     0.0000     1.800
     38     1.8500     10.000      0.000    224.000      0.009    41.5367  -115.5534   -59.6975     0.6032     0.1990    22.0000     7.0000     8.0000    22.0000    23.0000     3.0000     7.0000    23.0000    -3.0005     0.0010    20.7694    41.5441     2.6285     1.9998     0.0000     0.0006    14.4503    14.4453     0.0049     1.6563     1.0000     0.0000     0.5333     0.5706     1.6988    14.2955    14.0000     0.0000     1.850
     39     1.9001     10.000      0.000    233.000      0.010    41.5367  -115.5534   -59.6975     0.6032     0.1990    22.0000     7.0000     8.0000    22.0000    23.0000     3.0000     7.0000    23.0000    -3.0005     0.0010    20.7694    41.5441     2.6285     1.9998     0.0000     0.0006    14.4503    14.4453     0.0050     1.6567     1.0000     0.0000     0.5327     0.5722     1.6990    14.0117    14.0000     0.0000     1.900
     40     1.9501     10.000      0.000    200.000      0.008    41.5367  -115.5534   -59.6975     0.6032     0.1990    22.0000     7.0000     8.0000    22.0000    23.0000     3.0000     7.0000    23.0000    -3.0005     0.0010    20.7694    41.5441     2.6285     1.9998     0.0000     0.0006    14.4503    14.4453     0.0050     1.6567     1.0000     0.0000     0.5347     0.5746     1.6985    14.2149    14.0000     0.0000     1.950
     41     2.0000     10.000      0.000    227.000      0.010    41.5367  -115.5534   -59.6975     0.6032     0.1990    22.0000     7.0000     8.0000    22.0000    23.0000     3.0000     7.0000    23.0000    -3.0005     0.0010    20.7694    41.5441     2.6285     1.9998     0.0000     0.0006    14.4503    14.4453     0.0050     1.6565     1.0000     0.0000     0.5314     0.5729     1.6977    13.9437    14.0000     0.0000     2.000
     42     2.0500     10.000      0.000    243.000      0.010    41.5367  -115.5534   -59.6975     0.6032     0.1990    22.0000     7.0000     8.0000    22.0000    23.0000     3.0000     7.0000    23.0000    -3.0005     0.0010    20.7694    41.5441     2.6285     1.9998     0.0000     0.0006    14.4503    14.4453     0.0049     1.6561     1.0000     0.0000     0.5332     0.5749     1.6958    14.2878    14.0000     0.0000     2.050
