# scan = 59
# date = 8/12/2024
# time = 7:24:36 PM
# proposal = 32912
# experiment = Quantum Phase Transition in Transverse Field Ising Ferromagnet HoV6Sn6
# experiment_number = 1031
# command = th2th 4 -4 0.2
# builtin_command = scan s2 @(s2)+4 @(s2)+-4 0.200000 s1 @(s1)+(4/2) @(s1)+(-4/2) 0.100000
# users = Aashish Sapkota, Benjamin Ueland, Fei Li, Rob McQueeney, Tianxiong Han
# local_contact = Wei Tian, Bing Li
# scan_title = HoV6Sn6, (1.000093 0.000005 4.999568) th2th, T=0.25869 K, H=0 T
# monochromator = PG002
# analyzer = Pg002
# sense = +-+
# collimation = 40-40-40-80
# samplename = HoV6Sn6
# sampletype = crystal
# samplemosaic = 30.000000
# latticeconstants = 5.520013,5.520013,9.152013,90.000000,90.000000,120.000000
# ubmatrix = 0.015667,0.005926,0.108953,0.208596,0.104928,-0.008180,-0.000560,0.180868,0.001176
# mode = 0
# plane_normal = -0.010528,0.003477,0.999939
# ubconf = UB12Aug2024_54830PM.ini
# preset_type = normal
# preset_channel = time
# preset_value = 5.000000
# def_x = s2
# def_y = detector
# col_headers =
#   Pt.         s2         s1       time   detector    monitor        mcu         m2      mag_i        sgl        sgu   slitb_bt   slitb_lf   slitb_rt   slitb_tp   slita_bt   slita_lf   slita_rt   slita_tp        stl        stu         a1         a2          q          h          k          l         ei         ef          e        vti       temp     temp_2         lt         ht      1kpot  sorb_temp       sorb  sample_ht persistent_field
      1   -84.1990   -58.7592      5.000     28.000 177491.000      7.496    41.5367    -0.0000     0.6032     0.1990    22.0000     7.0000     8.0000    22.0000    23.0000     3.0000     7.0000    23.0000    -3.0005     0.0010    20.7691    41.5367     3.5408     0.9635     0.0000     4.8164    14.4503    14.4503     0.0000     1.6985     1.0000     0.0000     0.2587     0.2631     1.7249     1.7867     0.0000     0.0000     0.000
      2   -84.4010   -58.8592      5.000     18.000 177628.000      7.501    41.5367    -0.0000     0.6032     0.1990    22.0000     7.0000     8.0000    22.0000    23.0000     3.0000     7.0000    23.0000    -3.0005     0.0010    20.7691    41.5367     3.5477     0.9653     0.0000     4.8259    14.4503    14.4503     0.0000     1.6980     1.0000     0.0000     0.2587     0.2631     1.7262     1.7869     0.0000     0.0000     0.000
      3   -84.5990   -58.9592      5.000      8.000 179188.000      7.567    41.5367     0.0001     0.6032     0.1990    22.0000     7.0000     8.0000    22.0000    23.0000     3.0000     7.0000    23.0000    -3.0005     0.0010    20.7690    41.5367     3.5545     0.9672     0.0000     4.8350    14.4503    14.4503     0.0000     1.6979     1.0000     0.0000     0.2587     0.2631     1.7242     1.7864     0.0000     0.0000     0.000
      4   -84.7981   -59.0592      5.000     17.000 177514.000      7.496    41.5367    -0.0000     0.6032     0.1990    22.0000     7.0000     8.0000    22.0000    23.0000     3.0000     7.0000    23.0000    -3.0005     0.0010    20.7690    41.5367     3.5613     0.9691     0.0000     4.8442    14.4503    14.4503     0.0000     1.6983     1.0000     0.0000     0.2587     0.2630     1.7233     1.7853     0.0000     0.0000     0.000
      5   -85.0034   -59.1592      5.000     13.000 176937.000      7.472    41.5367     0.0001     0.6032     0.1990    22.0000     7.0000     8.0000    22.0000    23.0000     3.0000     7.0000    23.0000    -3.0005     0.0010    20.7689    41.5368     3.5683     0.9708     0.0000     4.8538    14.4503    14.4502     0.0001     1.6979     1.0000     0.0000     0.2587     0.2630     1.7230     1.7852     0.0000     0.0000     0.000
      6   -85.1990   -59.2592      5.000     11.000 178031.000      7.518    41.5367    -0.0000     0.6032     0.1990    22.0000     7.0000     8.0000    22.0000    23.0000     3.0000     7.0000    23.0000    -3.0005     0.0010    20.7690    41.5367     3.5749     0.9727     0.0000     4.8628    14.4503    14.4503     0.0000     1.6945     1.0000     0.0000     0.2587     0.2630     1.7242     1.7849     0.0000     0.0000     0.000
      7   -85.3981   -59.3592      5.000     11.000 178077.000      7.520    41.5367    -0.0000     0.6032     0.1990    22.0000     7.0000     8.0000    22.0000    23.0000     3.0000     7.0000    23.0000    -3.0005     0.0010    20.7690    41.5367     3.5817     0.9746     0.0000     4.8719    14.4503    14.4503     0.0000     1.6974     1.0000     0.0000     0.2587     0.2630     1.7235     1.7845     0.0000     0.0000     0.000
      8   -85.5967   -59.4592      5.000     11.000 178284.000      7.529    41.5367     0.0000     0.6032     0.1990    22.0000     7.0000     8.0000    22.0000    23.0000     3.0000     7.0000    23.0000    -3.0005     0.0010    20.7690    41.5367     3.5884     0.9765     0.0000     4.8811    14.4503    14.4503     0.0000     1.6953     1.0000     0.0000     0.2586     0.2630     1.7227     1.7842     0.0000     0.0000     0.000
      9   -85.7969   -59.5592      5.000     16.000 177818.000      7.509    41.5367    -0.0000     0.6032     0.1990    22.0000     7.0000     8.0000    22.0000    23.0000     3.0000     7.0000    23.0000    -3.0005     0.0010    20.7689    41.5368     3.5951     0.9783     0.0000     4.8903    14.4503    14.4502     0.0001     1.6947     1.0000     0.0000     0.2586     0.2630     1.7221     1.7835     0.0000     0.0000     0.000
     10   -86.0002   -59.6592      5.000     15.000 177476.000      7.495    41.5367    -0.0001     0.6032     0.1990    22.0000     7.0000     8.0000    22.0000    23.0000     3.0000     7.0000    23.0000    -3.0005     0.0010    20.7689    41.5368     3.6020     0.9801     0.0000     4.8996    14.4503    14.4502     0.0001     1.6946     1.0000     0.0000     0.2587     0.2630     1.7247     1.7833     0.0000     0.0000     0.000
     11   -86.1982   -59.7592      5.000      7.000 177975.000      7.516    41.5367     0.0001     0.6032     0.1990    22.0000     7.0000     8.0000    22.0000    23.0000     3.0000     7.0000    23.0000    -3.0005     0.0010    20.7689    41.5368     3.6087     0.9819     0.0000     4.9087    14.4503    14.4502     0.0001     1.6941     1.0000     0.0000     0.2586     0.2630     1.7220     1.7823     0.0000     0.0000     0.000
     12   -86.3979   -59.8592      5.000     11.000 176137.000      7.438    41.5367    -0.0000     0.6032     0.1990    22.0000     7.0000     8.0000    22.0000    23.0000     3.0000     7.0000    23.0000    -3.0005     0.0010    20.7689    41.5368     3.6154     0.9838     0.0000     4.9178    14.4503    14.4502     0.0001     1.6889     1.0000     0.0000     0.2586     0.2630     1.7226     1.7832     0.0000     0.0000     0.000
     13   -86.6037   -59.9592      5.000     13.000 176425.000      7.451    41.5367     0.0001     0.6032     0.1990    22.0000     7.0000     8.0000    22.0000    23.0000     3.0000     7.0000    23.0000    -3.0005     0.0010    20.7689    41.5367     3.6223     0.9855     0.0000     4.9273    14.4503    14.4503     0.0000     1.6931     1.0000     0.0000     0.2586     0.2630     1.7216     1.7820     0.0000     0.0000     0.000
     14   -86.8014   -60.0592      5.000     16.000 176309.000      7.446    41.5367    -0.0000     0.6032     0.1990    22.0000     7.0000     8.0000    22.0000    23.0000     3.0000     7.0000    23.0000    -3.0005     0.0010    20.7689    41.5367     3.6289     0.9874     0.0000     4.9363    14.4503    14.4503     0.0000     1.6928     1.0000     0.0000     0.2586     0.2630     1.7198     1.7816     0.0000     0.0000     0.000
     15   -86.9999   -60.1592      5.000     30.000 176555.000      7.456    41.5367     0.0000     0.6032     0.1990    22.0000     7.0000     8.0000    22.0000    23.0000     3.0000     7.0000    23.0000    -3.0005     0.0010    20.7689    41.5367     3.6356     0.9892     0.0000     4.9453    14.4503    14.4503     0.0000     1.6927     1.0000     0.0000     0.2586     0.2630     1.7186     1.7819     0.0000     0.0000     0.000
     16   -87.1960   -60.2592      5.000     44.000 176226.000      7.442    41.5367    -0.0000     0.6032     0.1990    22.0000     7.0000     8.0000    22.0000    23.0000     3.0000     7.0000    23.0000    -3.0005     0.0010    20.7689    41.5367     3.6421     0.9911     0.0000     4.9541    14.4503    14.4503     0.0000     1.6923     1.0000     0.0000     0.2586     0.2630     1.7199     1.7813     0.0000     0.0000     0.000
     17   -87.3957   -60.3592      5.000     67.000 175948.000      7.430    41.5367    -0.0000     0.6032     0.1990    22.0000     7.0000     8.0000    22.0000    23.0000     3.0000     7.0000    23.0000    -3.0005     0.0010    20.7689    41.5367     3.6488     0.9929     0.0000     4.9632    14.4503    14.4503     0.0000     1.6921     1.0000     0.0000     0.2586     0.2630     1.7210     1.7809     0.0000     0.0000     0.000
     18   -87.5994   -60.4592      5.000     66.000 176158.000      7.439    41.5367    -0.0000     0.6032     0.1990    22.0000     7.0000     8.0000    22.0000    23.0000     3.0000     7.0000    23.0000    -3.0005     0.0010    20.7689    41.5368     3.6556     0.9947     0.0000     4.9725    14.4503    14.4502     0.0001     1.6917     1.0000     0.0000     0.2586     0.2630     1.7201     1.7809     0.0000     0.0000     0.000
     19   -87.8007   -60.5592      5.000     83.000 177549.000      7.498    41.5367     0.0001     0.6032     0.1990    22.0000     7.0000     8.0000    22.0000    23.0000     3.0000     7.0000    23.0000    -3.0005     0.0010    20.7689    41.5367     3.6622     0.9965     0.0000     4.9816    14.4503    14.4503     0.0000     1.6915     1.0000     0.0000     0.2586     0.2630     1.7185     1.7804     0.0000     0.0000     0.000
     20   -87.9971   -60.6592      5.000     88.000 176529.000      7.455    41.5367     0.0001     0.6032     0.1990    22.0000     7.0000     8.0000    22.0000    23.0000     3.0000     7.0000    23.0000    -3.0005     0.0010    20.7689    41.5367     3.6688     0.9983     0.0000     4.9904    14.4503    14.4503     0.0000     1.6913     1.0000     0.0000     0.2586     0.2629     1.7167     1.7801     0.0000     0.0000     0.000
     21   -88.2025   -60.7592      5.000     82.000 176458.000      7.452    41.5367     0.0000     0.6032     0.1990    22.0000     7.0000     8.0000    22.0000    23.0000     3.0000     7.0000    23.0000    -3.0005     0.0010    20.7688    41.5368     3.6756     1.0000     0.0000     4.9998    14.4503    14.4502     0.0001     1.6912     1.0000     0.0000     0.2586     0.2629     1.7193     1.7802     0.0000     0.0000     0.000
     22   -88.4056   -60.8592      5.000     93.000 176028.000      7.434    41.5367    -0.0000     0.6032     0.1990    22.0000     7.0000     8.0000    22.0000    23.0000     3.0000     7.0000    23.0000    -3.0005     0.0010    20.7688    41.5367     3.6823     1.0018     0.0000     5.0089    14.4503    14.4503     0.0000     1.6911     1.0000     0.0000     0.2586     0.2629     1.7191     1.7796     0.0000     0.0000     0.000
     23   -88.6000   -60.9592      5.000     62.000 175938.000      7.430    41.5367    -0.0001     0.6032     0.1990    22.0000     7.0000     8.0000    22.0000    23.0000     3.0000     7.0000    23.0000    -3.0005     0.0010    20.7688    41.5368     3.6887     1.0037     0.0000     5.0176    14.4503    14.4502     0.0000     1.6909     1.0000     0.0000     0.2585     0.2630     1.7184     1.7794     0.0000     0.0000     0.000
     24   -88.7990   -61.0592      5.000     55.000 175476.000      7.410    41.5367    -0.0001     0.6032     0.1990    22.0000     7.0000     8.0000    22.0000    23.0000     3.0000     7.0000    23.0000    -3.0005     0.0010    20.7688    41.5368     3.6953     1.0055     0.0000     5.0265    14.4503    14.4502     0.0001     1.6908     1.0000     0.0000     0.2585     0.2629     1.7200     1.7796     0.0000     0.0000     0.000
     25   -88.9976   -61.1592      5.000     43.000 176028.000      7.434    41.5367     0.0001     0.6032     0.1990    22.0000     7.0000     8.0000    22.0000    23.0000     3.0000     7.0000    23.0000    -3.0005     0.0010    20.7688    41.5367     3.7018     1.0073     0.0000     5.0353    14.4503    14.4503     0.0000     1.6905     1.0000     0.0000     0.2585     0.2629     1.7185     1.7793     0.0000     0.0000     0.000
     26   -89.1978   -61.2592      5.000     26.000 175889.000      7.428    41.5367     0.0000     0.6032     0.1990    22.0000     7.0000     8.0000    22.0000    23.0000     3.0000     7.0000    23.0000    -3.0005     0.0010    20.7688    41.5367     3.7084     1.0091     0.0000     5.0443    14.4503    14.4503     0.0000     1.6904     1.0000     0.0000     0.2585     0.2629     1.7165     1.7790     0.0000     0.0000     0.000
     27   -89.3975   -61.3592      5.000     34.000 174989.000      7.390    41.5367    -0.0000     0.6032     0.1990    22.0000     7.0000     8.0000    22.0000    23.0000     3.0000     7.0000    23.0000    -3.0005     0.0010    20.7688    41.5367     3.7149     1.0109     0.0000     5.0532    14.4503    14.4503     0.0000     1.6901     1.0000     0.0000     0.2585     0.2629     1.7173     1.7788     0.0000     0.0000     0.000
     28   -89.5964   -61.4592      5.000     24.000 175121.000      7.395    41.5367     0.0001     0.6032     0.1990    22.0000     7.0000     8.0000    22.0000    23.0000     3.0000     7.0000    23.0000    -3.0005     0.0010    20.7688    41.5367     3.7214     1.0127     0.0000     5.0620    14.4503    14.4503     0.0000     1.6899     1.0000     0.0000     0.2585     0.2629     1.7159     1.7787     0.0000     0.0000     0.000
     29   -89.8028   -61.5592      5.000     22.000 177015.000      7.475    41.5367    -0.0000     0.6032     0.1990    22.0000     7.0000     8.0000    22.0000    23.0000     3.0000     7.0000    23.0000    -3.0005     0.0010    20.7688    41.5368     3.7282     1.0144     0.0000     5.0713    14.4503    14.4502     0.0000     1.6898     1.0000     0.0000     0.2585     0.2629     1.7168     1.7792     0.0000     0.0000     0.000
     30   -90.0040   -61.6592      5.000     23.000 174685.000      7.377    41.5367    -0.0000     0.6032     0.1990    22.0000     7.0000     8.0000    22.0000    23.0000     3.0000     7.0000    23.0000    -3.0005     0.0010    20.7688    41.5367     3.7347     1.0161     0.0000     5.0803    14.4503    14.4503     0.0000     1.6897     1.0000     0.0000     0.2585     0.2629     1.7189     1.7786     0.0000     0.0000     0.000
     31   -90.2017   -61.7592      5.000     13.000 175691.000      7.420    41.5367     0.0001     0.6032     0.1990    22.0000     7.0000     8.0000    22.0000    23.0000     3.0000     7.0000    23.0000    -3.0005     0.0010    20.7688    41.5367     3.7412     1.0179     0.0000     5.0890    14.4503    14.4503     0.0000     1.6895     1.0000     0.0000     0.2585     0.2629     1.7181     1.7784     0.0000     0.0000     0.000
     32   -90.4009   -61.8592      5.000     14.000 175373.000      7.406    41.5367    -0.0000     0.6032     0.1990    22.0000     7.0000     8.0000    22.0000    23.0000     3.0000     7.0000    23.0000    -3.0005     0.0010    20.7688    41.5367     3.7477     1.0197     0.0000     5.0978    14.4503    14.4503     0.0000     1.6893     1.0000     0.0000     0.2585     0.2629     1.7175     1.7780     0.0000     0.0000     0.000
     33   -90.5971   -61.9592      5.000      9.000 174824.000      7.383    41.5367     0.0001     0.6032     0.1990    22.0000     7.0000     8.0000    22.0000    23.0000     3.0000     7.0000    23.0000    -3.0005     0.0010    20.7688    41.5367     3.7540     1.0215     0.0000     5.1064    14.4503    14.4503     0.0000     1.6890     1.0000     0.0000     0.2585     0.2629     1.7151     1.7773     0.0000     0.0000     0.000
     34   -90.7998   -62.0592      5.000     11.000 174984.000      7.390    41.5367     0.0001     0.6032     0.1990    22.0000     7.0000     8.0000    22.0000    23.0000     3.0000     7.0000    23.0000    -3.0005     0.0010    20.7688    41.5367     3.7606     1.0232     0.0000     5.1154    14.4503    14.4503     0.0000     1.6888     1.0000     0.0000     0.2585     0.2629     1.7168     1.7778     0.0000     0.0000     0.000
     35   -90.9997   -62.1592      5.000      3.000 175842.000      7.426    41.5367    -0.0000     0.6032     0.1990    22.0000     7.0000     8.0000    22.0000    23.0000     3.0000     7.0000    23.0000    -3.0005     0.0010    20.7688    41.5367     3.7670     1.0250     0.0000     5.1241    14.4503    14.4503     0.0000     1.6885     1.0000     0.0000     0.2585     0.2629     1.7177     1.7779     0.0000     0.0000     0.000
     36   -91.2000   -62.2592      5.000     11.000 174213.000      7.357    41.5367     0.0001     0.6032     0.1990    22.0000     7.0000     8.0000    22.0000    23.0000     3.0000     7.0000    23.0000    -3.0005     0.0010    20.7688    41.5367     3.7735     1.0268     0.0000     5.1329    14.4503    14.4503     0.0000     1.6882     1.0000     0.0000     0.2584     0.2628     1.7167     1.7771     0.0000     0.0000     0.000
     37   -91.4006   -62.3592      5.000     12.000 175244.000      7.401    41.5367     0.0001     0.6032     0.1990    22.0000     7.0000     8.0000    22.0000    23.0000     3.0000     7.0000    23.0000    -3.0005     0.0010    20.7687    41.5367     3.7800     1.0285     0.0000     5.1417    14.4503    14.4503     0.0000     1.6882     1.0000     0.0000     0.2585     0.2628     1.7140     1.7770     0.0000     0.0000     0.000
     38   -91.6012   -62.4592      5.000      9.000 175590.000      7.415    41.5367    -0.0000     0.6032     0.1990    22.0000     7.0000     8.0000    22.0000    23.0000     3.0000     7.0000    23.0000    -3.0005     0.0010    20.7688    41.5367     3.7864     1.0302     0.0000     5.1505    14.4503    14.4503     0.0000     1.6881     1.0000     0.0000     0.2584     0.2628     1.7157     1.7773     0.0000     0.0000     0.000
     39   -91.8026   -62.5592      5.000      6.000 175604.000      7.416    41.5367     0.0001     0.6032     0.1990    22.0000     7.0000     8.0000    22.0000    23.0000     3.0000     7.0000    23.0000    -3.0005     0.0010    20.7688    41.5367     3.7929     1.0320     0.0000     5.1593    14.4503    14.4503     0.0000     1.6886     1.0000     0.0000     0.2585     0.2628     1.7138     1.7769     0.0000     0.0000     0.000
     40   -91.9976   -62.6592      5.000      7.000 174505.000      7.369    41.5367    -0.0000     0.6032     0.1990    22.0000     7.0000     8.0000    22.0000    23.0000     3.0000     7.0000    23.0000    -3.0005     0.0010    20.7687    41.5367     3.7991     1.0338     0.0000     5.1678    14.4503    14.4503     0.0000     1.6886     1.0000     0.0000     0.2585     0.2628     1.7130     1.7766     0.0000     0.0000     0.000
     41   -92.1961   -62.7592      5.000     15.000 174420.000      7.366    41.5367    -0.0000     0.6032     0.1990    22.0000     7.0000     8.0000    22.0000    23.0000     3.0000     7.0000    23.0000    -3.0005     0.0010    20.7687    41.5367     3.8055     1.0355     0.0000     5.1764    14.4503    14.4503     0.0000     1.6885     1.0000     0.0000     0.2584     0.2628     1.7172     1.7769     0.0000     0.0000     0.000
# Sum of Counts = 1147
# Center of Mass = -88.060215+/-3.677492
# Full Width Half-Maximum = 3.325555+/-0.942786
# 7:29:16 PM  8/12/2024   scan completed.
