# scan = 420
# date = 8/16/2024
# time = 9:10:12 PM
# proposal = 32912
# experiment = Quantum Phase Transition in Transverse Field Ising Ferromagnet HoV6Sn6
# experiment_number = 1031
# command = scanrel s1 1 -1 0.1
# builtin_command = scan s1 @(s1)+1 @(s1)+-1 0.100000
# users = Aashish Sapkota, Benjamin Ueland, Fei Li, Rob McQueeney, Tianxiong Han
# local_contact = Wei Tian, Bing Li
# scan_title = OP on Hc (2 0 0) H = 2.2 T, T = 2.81477 K
# monochromator = PG002
# analyzer = Pg002
# sense = +-+
# collimation = 40-40-40-80
# samplename = HoV6Sn6
# sampletype = crystal
# samplemosaic = 30.000000
# latticeconstants = 5.520013,5.520013,9.152013,90.000000,90.000000,120.000000
# ubmatrix = 0.015667,0.005926,0.108953,0.208596,0.104928,-0.008180,-0.000560,0.180868,0.001176
# mode = 0
# plane_normal = -0.010528,0.003477,0.999939
# ubconf = UB12Aug2024_54830PM.ini
# preset_type = normal 
# preset_channel = time
# preset_value = 5.000000
# def_x = s1
# def_y = detector
# col_headers = 
#   Pt.         s1       time   detector    monitor        mcu         m2      mag_i         s2        sgl        sgu   slitb_bt   slitb_lf   slitb_rt   slitb_tp   slita_bt   slita_lf   slita_rt   slita_tp        stl        stu         a1         a2          q          h          k          l         ei         ef          e        vti       temp     temp_2         lt         ht      1kpot  sorb_temp       sorb  sample_ht persistent_field
      1  -114.5534      5.000      8.000 198827.000      8.397    41.5367     0.0001   -59.6975     0.6032     0.1990    22.0000     7.0000     8.0000    22.0000    23.0000     3.0000     7.0000    23.0000    -3.0005     0.0010    20.7694    41.5442     2.6285     1.9995     0.0000     0.0674    14.4503    14.4453     0.0050     1.6717     1.0000     0.0000     2.9828     2.9158     2.2197    35.0291    35.0000     4.0000     2.200
      2  -114.6534      5.000      8.000 197886.000      8.357    41.5367    -0.0000   -59.6975     0.6032     0.1990    22.0000     7.0000     8.0000    22.0000    23.0000     3.0000     7.0000    23.0000    -3.0005     0.0010    20.7694    41.5442     2.6285     1.9996     0.0000     0.0607    14.4503    14.4453     0.0050     1.6722     1.0000     0.0000     3.0696     2.9991     2.2244    34.9927    35.0000     4.0000     2.200
      3  -114.7534      5.000     12.000 199056.000      8.406    41.5367     0.0000   -59.6975     0.6032     0.1990    22.0000     7.0000     8.0000    22.0000    23.0000     3.0000     7.0000    23.0000    -3.0005     0.0010    20.7694    41.5442     2.6285     1.9996     0.0000     0.0540    14.4503    14.4453     0.0050     1.6729     1.0000     0.0000     3.1736     3.1009     2.2296    34.9718    35.0000     4.0000     2.200
      4  -114.8534      5.000     14.000 198183.000      8.369    41.5367    -0.0000   -59.6975     0.6032     0.1990    22.0000     7.0000     8.0000    22.0000    23.0000     3.0000     7.0000    23.0000    -3.0005     0.0010    20.7694    41.5442     2.6285     1.9997     0.0000     0.0473    14.4503    14.4453     0.0050     1.6735     1.0000     0.0000     3.2679     3.1983     2.2350    35.0006    35.0000     4.0000     2.200
      5  -114.9534      5.000     13.000 198083.000      8.365    41.5367     0.0000   -59.6975     0.6032     0.1990    22.0000     7.0000     8.0000    22.0000    23.0000     3.0000     7.0000    23.0000    -3.0005     0.0010    20.7694    41.5442     2.6285     1.9997     0.0000     0.0407    14.4503    14.4453     0.0050     1.6742     1.0000     0.0000     3.3262     3.2591     2.2405    35.0258    35.0000     4.0000     2.200
      6  -115.0534      5.000     13.000 198211.000      8.371    41.5367     0.0001   -59.6975     0.6032     0.1990    22.0000     7.0000     8.0000    22.0000    23.0000     3.0000     7.0000    23.0000    -3.0005     0.0010    20.7694    41.5442     2.6285     1.9997     0.0000     0.0340    14.4503    14.4453     0.0050     1.6749     1.0000     0.0000     3.4268     3.3552     2.2452    34.9869    35.0000     4.0000     2.200
      7  -115.1534      5.000     24.000 197964.000      8.360    41.5367    -0.0000   -59.6975     0.6032     0.1990    22.0000     7.0000     8.0000    22.0000    23.0000     3.0000     7.0000    23.0000    -3.0005     0.0010    20.7694    41.5442     2.6285     1.9998     0.0000     0.0273    14.4503    14.4453     0.0050     1.6757     1.0000     0.0000     3.5106     3.4396     2.2493    34.9727    35.0000     4.0000     2.200
      8  -115.2534      5.000     51.000 196866.000      8.314    41.5367    -0.0000   -59.6975     0.6032     0.1990    22.0000     7.0000     8.0000    22.0000    23.0000     3.0000     7.0000    23.0000    -3.0005     0.0010    20.7694    41.5442     2.6285     1.9998     0.0000     0.0206    14.4503    14.4453     0.0050     1.6763     1.0000     0.0000     3.5818     3.5108     2.2546    35.0100    35.0000     4.0000     2.200
      9  -115.3534      5.000    152.000 198789.000      8.395    41.5367     0.0001   -59.6975     0.6032     0.1990    22.0000     7.0000     8.0000    22.0000    23.0000     3.0000     7.0000    23.0000    -3.0005     0.0010    20.7694    41.5442     2.6285     1.9998     0.0000     0.0139    14.4503    14.4453     0.0050     1.6770     1.0000     0.0000     3.6321     3.5654     2.2597    35.0238    35.0000     4.0000     2.200
     10  -115.4534      5.000    336.000 197714.000      8.350    41.5367     0.0001   -59.6975     0.6032     0.1990    22.0000     7.0000     8.0000    22.0000    23.0000     3.0000     7.0000    23.0000    -3.0005     0.0010    20.7694    41.5442     2.6285     1.9998     0.0000     0.0073    14.4503    14.4453     0.0050     1.6778     1.0000     0.0000     3.7364     3.6673     2.2636    34.9928    35.0000     4.0000     2.200
     11  -115.5534      5.000    430.000 198459.000      8.381    41.5367    -0.0000   -59.6975     0.6032     0.1990    22.0000     7.0000     8.0000    22.0000    23.0000     3.0000     7.0000    23.0000    -3.0005     0.0010    20.7694    41.5442     2.6285     1.9998     0.0000     0.0006    14.4503    14.4453     0.0050     1.6785     1.0000     0.0000     3.8087     3.7400     2.2678    34.9741    35.0000     4.0000     2.200
     12  -115.6534      5.000    251.000 198932.000      8.401    41.5367     0.0000   -59.6975     0.6032     0.1990    22.0000     7.0000     8.0000    22.0000    23.0000     3.0000     7.0000    23.0000    -3.0005     0.0010    20.7694    41.5442     2.6285     1.9998     0.0000    -0.0061    14.4503    14.4453     0.0050     1.6793     1.0000     0.0000     3.9104     3.8414     2.2709    35.0093    35.0000     4.0000     2.200
     13  -115.7534      5.000    102.000 198194.000      8.370    41.5367     0.0001   -59.6975     0.6032     0.1990    22.0000     7.0000     8.0000    22.0000    23.0000     3.0000     7.0000    23.0000    -3.0005     0.0010    20.7694    41.5442     2.6285     1.9998     0.0000    -0.0128    14.4503    14.4453     0.0050     1.6807     1.0000     0.0000     3.9868     3.9223     2.2755    35.0249    35.0000     4.0000     2.200
     14  -115.8534      5.000     42.000 198821.000      8.396    41.5367    -0.0000   -59.6975     0.6032     0.1990    22.0000     7.0000     8.0000    22.0000    23.0000     3.0000     7.0000    23.0000    -3.0005     0.0010    20.7694    41.5442     2.6285     1.9998     0.0000    -0.0195    14.4503    14.4453     0.0050     1.6816     1.0000     0.0000     4.0555     3.9964     2.2790    34.9915    35.0000     4.0000     2.200
     15  -115.9534      5.000     14.000 198761.000      8.394    41.5367    -0.0000   -59.6975     0.6032     0.1990    22.0000     7.0000     8.0000    22.0000    23.0000     3.0000     7.0000    23.0000    -3.0005     0.0010    20.7694    41.5442     2.6285     1.9998     0.0000    -0.0262    14.4503    14.4453     0.0050     1.6826     1.0000     0.0000     4.1149     4.0515     2.2811    34.9756    35.0000     4.0000     2.200
     16  -116.0534      5.000     11.000 197684.000      8.348    41.5367     0.0000   -59.6975     0.6032     0.1990    22.0000     7.0000     8.0000    22.0000    23.0000     3.0000     7.0000    23.0000    -3.0005     0.0010    20.7694    41.5442     2.6285     1.9997     0.0000    -0.0328    14.4503    14.4453     0.0050     1.6837     1.0000     0.0000     4.1824     4.1204     2.2853    35.0066    35.0000     4.0000     2.200
     17  -116.1534      5.000     15.000 197734.000      8.350    41.5367    -0.0000   -59.6975     0.6032     0.1990    22.0000     7.0000     8.0000    22.0000    23.0000     3.0000     7.0000    23.0000    -3.0005     0.0010    20.7694    41.5442     2.6285     1.9997     0.0000    -0.0395    14.4503    14.4453     0.0050     1.6851     1.0000     0.0000     4.2082     4.1469     2.2890    35.0228    35.0000     4.0000     2.200
     18  -116.2534      5.000      8.000 198215.000      8.371    41.5367     0.0001   -59.6975     0.6032     0.1990    22.0000     7.0000     8.0000    22.0000    23.0000     3.0000     7.0000    23.0000    -3.0005     0.0010    20.7694    41.5442     2.6285     1.9997     0.0000    -0.0462    14.4503    14.4453     0.0050     1.6864     1.0000     0.0000     4.2941     4.2336     2.2908    34.9875    35.0000     4.0000     2.200
     19  -116.3534      5.000     10.000 198861.000      8.398    41.5367    -0.0000   -59.6975     0.6032     0.1990    22.0000     7.0000     8.0000    22.0000    23.0000     3.0000     7.0000    23.0000    -3.0005     0.0010    20.7694    41.5442     2.6285     1.9996     0.0000    -0.0529    14.4503    14.4453     0.0050     1.6877     1.0000     0.0000     4.3309     4.2706     2.2932    34.9779    35.0000     4.0000     2.200
     20  -116.4534      5.000     11.000 197819.000      8.354    41.5367    -0.0000   -59.6975     0.6032     0.1990    22.0000     7.0000     8.0000    22.0000    23.0000     3.0000     7.0000    23.0000    -3.0005     0.0010    20.7694    41.5442     2.6285     1.9996     0.0000    -0.0596    14.4503    14.4453     0.0050     1.6890     1.0000     0.0000     4.3553     4.2963     2.2947    35.0055    35.0000     4.0000     2.200
     21  -116.5534      5.000     11.000 197603.000      8.345    41.5367    -0.0000   -59.6975     0.6032     0.1990    22.0000     7.0000     8.0000    22.0000    23.0000     3.0000     7.0000    23.0000    -3.0005     0.0010    20.7694    41.5442     2.6285     1.9995     0.0000    -0.0662    14.4503    14.4453     0.0050     1.6912     1.0000     0.0000     4.3781     4.3197     2.2959    35.0216    35.0000     4.0000     2.200
# Sum of Counts = 1536
# Center of Mass = -115.537059+/-4.169090
# Full Width Half-Maximum = 0.523907+/-1.358400
# 9:12:30 PM  8/16/2024   scan completed.
