# scan = 411
# date = 8/16/2024
# time = 8:32:41 PM
# proposal = 32912
# experiment = Quantum Phase Transition in Transverse Field Ising Ferromagnet HoV6Sn6
# experiment_number = 1031
# command = scanrel s1 1 -1 0.1
# builtin_command = scan s1 @(s1)+1 @(s1)+-1 0.100000
# users = Aashish Sapkota, Benjamin Ueland, Fei Li, Rob McQueeney, Tianxiong Han
# local_contact = Wei Tian, Bing Li
# scan_title = OP on Hc (2 0 0) H = 2.2 T, T = 1.07776 K
# monochromator = PG002
# analyzer = Pg002
# sense = +-+
# collimation = 40-40-40-80
# samplename = HoV6Sn6
# sampletype = crystal
# samplemosaic = 30.000000
# latticeconstants = 5.520013,5.520013,9.152013,90.000000,90.000000,120.000000
# ubmatrix = 0.015667,0.005926,0.108953,0.208596,0.104928,-0.008180,-0.000560,0.180868,0.001176
# mode = 0
# plane_normal = -0.010528,0.003477,0.999939
# ubconf = UB12Aug2024_54830PM.ini
# preset_type = normal 
# preset_channel = time
# preset_value = 5.000000
# def_x = s1
# def_y = detector
# col_headers = 
#   Pt.         s1       time   detector    monitor        mcu         m2      mag_i         s2        sgl        sgu   slitb_bt   slitb_lf   slitb_rt   slitb_tp   slita_bt   slita_lf   slita_rt   slita_tp        stl        stu         a1         a2          q          h          k          l         ei         ef          e        vti       temp     temp_2         lt         ht      1kpot  sorb_temp       sorb  sample_ht persistent_field
      1  -114.5534      5.000      8.000 200713.000      8.476    41.5367     0.0000   -59.6975     0.6032     0.1990    22.0000     7.0000     8.0000    22.0000    23.0000     3.0000     7.0000    23.0000    -3.0005     0.0010    20.7694    41.5442     2.6285     1.9995     0.0000     0.0674    14.4503    14.4453     0.0050     1.6367     1.0000     0.0000     1.0804     1.0859     1.6741    22.0257    22.0000     0.0000     2.200
      2  -114.6534      5.000      7.000 197810.000      8.354    41.5367    -0.0000   -59.6975     0.6032     0.1990    22.0000     7.0000     8.0000    22.0000    23.0000     3.0000     7.0000    23.0000    -3.0005     0.0010    20.7694    41.5442     2.6285     1.9996     0.0000     0.0607    14.4503    14.4453     0.0050     1.6360     1.0000     0.0000     1.0791     1.0843     1.6730    21.9523    22.0000     0.0000     2.200
      3  -114.7534      5.000     11.000 198252.000      8.372    41.5367    -0.0000   -59.6975     0.6032     0.1990    22.0000     7.0000     8.0000    22.0000    23.0000     3.0000     7.0000    23.0000    -3.0005     0.0010    20.7694    41.5442     2.6285     1.9996     0.0000     0.0540    14.4503    14.4453     0.0050     1.6354     1.0000     0.0000     1.0777     1.0834     1.6719    21.9436    22.0000     0.0000     2.200
      4  -114.8534      5.000      8.000 198497.000      8.383    41.5367     0.0001   -59.6975     0.6032     0.1990    22.0000     7.0000     8.0000    22.0000    23.0000     3.0000     7.0000    23.0000    -3.0005     0.0010    20.7694    41.5442     2.6285     1.9997     0.0000     0.0473    14.4503    14.4453     0.0050     1.6347     1.0000     0.0000     1.0792     1.0849     1.6706    21.9972    22.0000     0.0000     2.200
      5  -114.9534      5.000     18.000 197835.000      8.355    41.5367     0.0001   -59.6975     0.6032     0.1990    22.0000     7.0000     8.0000    22.0000    23.0000     3.0000     7.0000    23.0000    -3.0005     0.0010    20.7694    41.5442     2.6285     1.9997     0.0000     0.0407    14.4503    14.4453     0.0050     1.6342     1.0000     0.0000     1.0821     1.0876     1.6695    22.0506    22.0000     0.0000     2.200
      6  -115.0534      5.000     19.000 197743.000      8.351    41.5367     0.0000   -59.6975     0.6032     0.1990    22.0000     7.0000     8.0000    22.0000    23.0000     3.0000     7.0000    23.0000    -3.0005     0.0010    20.7694    41.5442     2.6285     1.9997     0.0000     0.0340    14.4503    14.4453     0.0050     1.6332     1.0000     0.0000     1.0832     1.0883     1.6671    22.0096    22.0000     0.0000     2.200
      7  -115.1534      5.000     24.000 198054.000      8.364    41.5367    -0.0000   -59.6975     0.6032     0.1990    22.0000     7.0000     8.0000    22.0000    23.0000     3.0000     7.0000    23.0000    -3.0005     0.0010    20.7694    41.5442     2.6285     1.9998     0.0000     0.0273    14.4503    14.4453     0.0050     1.6325     1.0000     0.0000     1.0814     1.0866     1.6636    21.9485    22.0000     0.0000     2.200
      8  -115.2534      5.000     61.000 197783.000      8.352    41.5367     0.0001   -59.6975     0.6032     0.1990    22.0000     7.0000     8.0000    22.0000    23.0000     3.0000     7.0000    23.0000    -3.0005     0.0010    20.7694    41.5442     2.6285     1.9998     0.0000     0.0206    14.4503    14.4453     0.0050     1.6319     1.0000     0.0000     1.0807     1.0860     1.6635    21.9403    22.0000     0.0000     2.200
      9  -115.3534      5.000    225.000 199464.000      8.423    41.5367    -0.0000   -59.6975     0.6032     0.1990    22.0000     7.0000     8.0000    22.0000    23.0000     3.0000     7.0000    23.0000    -3.0005     0.0010    20.7694    41.5442     2.6285     1.9998     0.0000     0.0139    14.4503    14.4453     0.0050     1.6315     1.0000     0.0000     1.0809     1.0865     1.6622    21.9730    22.0000     0.0000     2.200
     10  -115.4534      5.000    421.000 199246.000      8.414    41.5367     0.0000   -59.6975     0.6032     0.1990    22.0000     7.0000     8.0000    22.0000    23.0000     3.0000     7.0000    23.0000    -3.0005     0.0010    20.7694    41.5442     2.6285     1.9998     0.0000     0.0073    14.4503    14.4453     0.0050     1.6310     1.0000     0.0000     1.0834     1.0887     1.6600    22.0295    22.0000     0.0000     2.200
     11  -115.5534      5.000    483.000 198486.000      8.382    41.5367    -0.0000   -59.6975     0.6032     0.1990    22.0000     7.0000     8.0000    22.0000    23.0000     3.0000     7.0000    23.0000    -3.0005     0.0010    20.7694    41.5442     2.6285     1.9998     0.0000     0.0006    14.4503    14.4453     0.0050     1.6306     1.0000     0.0000     1.0843     1.0896     1.6605    22.0431    22.0000     0.0000     2.200
     12  -115.6534      5.000    341.000 197627.000      8.346    41.5367     0.0001   -59.6975     0.6032     0.1990    22.0000     7.0000     8.0000    22.0000    23.0000     3.0000     7.0000    23.0000    -3.0005     0.0010    20.7694    41.5442     2.6285     1.9998     0.0000    -0.0061    14.4503    14.4453     0.0050     1.6303     1.0000     0.0000     1.0857     1.0908     1.6601    22.0406    22.0000     0.0000     2.200
     13  -115.7534      5.000    160.000 198036.000      8.363    41.5367    -0.0000   -59.6975     0.6032     0.1990    22.0000     7.0000     8.0000    22.0000    23.0000     3.0000     7.0000    23.0000    -3.0005     0.0010    20.7694    41.5442     2.6285     1.9998     0.0000    -0.0128    14.4503    14.4453     0.0050     1.6299     1.0000     0.0000     1.0850     1.0899     1.6588    21.9953    22.0000     0.0000     2.200
     14  -115.8534      5.000     29.000 198712.000      8.392    41.5367    -0.0000   -59.6975     0.6032     0.1990    22.0000     7.0000     8.0000    22.0000    23.0000     3.0000     7.0000    23.0000    -3.0005     0.0010    20.7694    41.5442     2.6285     1.9998     0.0000    -0.0195    14.4503    14.4453     0.0050     1.6295     1.0000     0.0000     1.0850     1.0899     1.6579    21.9753    22.0000     0.0000     2.200
     15  -115.9534      5.000     18.000 198847.000      8.397    41.5367     0.0000   -59.6975     0.6032     0.1990    22.0000     7.0000     8.0000    22.0000    23.0000     3.0000     7.0000    23.0000    -3.0005     0.0010    20.7694    41.5442     2.6285     1.9998     0.0000    -0.0262    14.4503    14.4453     0.0050     1.6292     1.0000     0.0000     1.0824     1.0879     1.6577    21.9427    22.0000     0.0000     2.200
     16  -116.0534      5.000     14.000 198557.000      8.385    41.5367    -0.0000   -59.6975     0.6032     0.1990    22.0000     7.0000     8.0000    22.0000    23.0000     3.0000     7.0000    23.0000    -3.0005     0.0010    20.7694    41.5442     2.6285     1.9997     0.0000    -0.0328    14.4503    14.4453     0.0050     1.6297     1.0000     0.0000     1.0836     1.0890     1.6577    21.9925    22.0000     0.0000     2.200
     17  -116.1534      5.000     13.000 199086.000      8.407    41.5367    -0.0000   -59.6975     0.6032     0.1990    22.0000     7.0000     8.0000    22.0000    23.0000     3.0000     7.0000    23.0000    -3.0005     0.0010    20.7694    41.5442     2.6285     1.9997     0.0000    -0.0395    14.4503    14.4453     0.0050     1.6295     1.0000     0.0000     1.0834     1.0889     1.6568    21.9825    22.0000     0.0000     2.200
     18  -116.2534      5.000      8.000 198455.000      8.381    41.5367     0.0001   -59.6975     0.6032     0.1990    22.0000     7.0000     8.0000    22.0000    23.0000     3.0000     7.0000    23.0000    -3.0005     0.0010    20.7694    41.5442     2.6285     1.9997     0.0000    -0.0462    14.4503    14.4453     0.0050     1.6293     1.0000     0.0000     1.0858     1.0911     1.6565    22.0457    22.0000     0.0000     2.200
     19  -116.3534      5.000     18.000 198122.000      8.367    41.5367    -0.0001   -59.6975     0.6032     0.1990    22.0000     7.0000     8.0000    22.0000    23.0000     3.0000     7.0000    23.0000    -3.0005     0.0010    20.7694    41.5442     2.6285     1.9996     0.0000    -0.0529    14.4503    14.4453     0.0050     1.6292     1.0000     0.0000     1.0872     1.0924     1.6565    22.0472    22.0000     0.0000     2.200
     20  -116.4534      5.000     12.000 199325.000      8.418    41.5367    -0.0000   -59.6975     0.6032     0.1990    22.0000     7.0000     8.0000    22.0000    23.0000     3.0000     7.0000    23.0000    -3.0005     0.0010    20.7694    41.5442     2.6285     1.9996     0.0000    -0.0596    14.4503    14.4453     0.0050     1.6291     1.0000     0.0000     1.0871     1.0921     1.6567    22.0113    22.0000     0.0000     2.200
     21  -116.5534      5.000     12.000 198524.000      8.384    41.5367    -0.0000   -59.6975     0.6032     0.1990    22.0000     7.0000     8.0000    22.0000    23.0000     3.0000     7.0000    23.0000    -3.0005     0.0010    20.7694    41.5442     2.6285     1.9995     0.0000    -0.0662    14.4503    14.4453     0.0050     1.6290     1.0000     0.0000     1.0849     1.0900     1.6558    21.9490    22.0000     0.0000     2.200
# Sum of Counts = 1910
# Center of Mass = -115.540625+/-3.738811
# Full Width Half-Maximum = 0.498644+/-1.347474
# 8:34:59 PM  8/16/2024   scan completed.
