# scan = 422
# date = 8/16/2024
# time = 9:18:23 PM
# proposal = 32912
# experiment = Quantum Phase Transition in Transverse Field Ising Ferromagnet HoV6Sn6
# experiment_number = 1031
# command = scanrel s1 1 -1 0.1
# builtin_command = scan s1 @(s1)+1 @(s1)+-1 0.100000
# users = Aashish Sapkota, Benjamin Ueland, Fei Li, Rob McQueeney, Tianxiong Han
# local_contact = Wei Tian, Bing Li
# scan_title = OP on Hc (2 0 0) H = 2.2 T, T = 4.91571 K
# monochromator = PG002
# analyzer = Pg002
# sense = +-+
# collimation = 40-40-40-80
# samplename = HoV6Sn6
# sampletype = crystal
# samplemosaic = 30.000000
# latticeconstants = 5.520013,5.520013,9.152013,90.000000,90.000000,120.000000
# ubmatrix = 0.015667,0.005926,0.108953,0.208596,0.104928,-0.008180,-0.000560,0.180868,0.001176
# mode = 0
# plane_normal = -0.010528,0.003477,0.999939
# ubconf = UB12Aug2024_54830PM.ini
# preset_type = normal 
# preset_channel = time
# preset_value = 5.000000
# def_x = s1
# def_y = detector
# col_headers = 
#   Pt.         s1       time   detector    monitor        mcu         m2      mag_i         s2        sgl        sgu   slitb_bt   slitb_lf   slitb_rt   slitb_tp   slita_bt   slita_lf   slita_rt   slita_tp        stl        stu         a1         a2          q          h          k          l         ei         ef          e        vti       temp     temp_2         lt         ht      1kpot  sorb_temp       sorb  sample_ht persistent_field
      1  -114.5534      5.000     16.000 197467.000      8.339    41.5367    -0.0000   -59.6975     0.6032     0.1990    22.0000     7.0000     8.0000    22.0000    23.0000     3.0000     7.0000    23.0000    -3.0005     0.0010    20.7694    41.5442     2.6285     1.9995     0.0000     0.0674    14.4503    14.4453     0.0050     1.6569     1.0000     0.0000     4.9942     4.9610     2.3195    35.0118    35.0000     5.0000     2.200
      2  -114.6534      5.000     10.000 198249.000      8.372    41.5367    -0.0000   -59.6975     0.6032     0.1990    22.0000     7.0000     8.0000    22.0000    23.0000     3.0000     7.0000    23.0000    -3.0005     0.0010    20.7694    41.5442     2.6285     1.9996     0.0000     0.0607    14.4503    14.4453     0.0050     1.6567     1.0000     0.0000     5.0085     4.9755     2.3208    35.0129    35.0000     5.0000     2.200
      3  -114.7534      5.000     14.000 197974.000      8.361    41.5367    -0.0000   -59.6975     0.6032     0.1990    22.0000     7.0000     8.0000    22.0000    23.0000     3.0000     7.0000    23.0000    -3.0005     0.0010    20.7694    41.5442     2.6285     1.9996     0.0000     0.0540    14.4503    14.4453     0.0050     1.6564     1.0000     0.0000     5.0127     4.9794     2.3212    34.9887    35.0000     5.0000     2.200
      4  -114.8534      5.000      9.000 198069.000      8.365    41.5367     0.0001   -59.6975     0.6032     0.1990    22.0000     7.0000     8.0000    22.0000    23.0000     3.0000     7.0000    23.0000    -3.0005     0.0010    20.7694    41.5442     2.6285     1.9997     0.0000     0.0473    14.4503    14.4453     0.0050     1.6562     1.0000     0.0000     5.0200     4.9881     2.3215    34.9878    35.0000     5.0000     2.200
      5  -114.9534      5.000     13.000 198693.000      8.391    41.5367    -0.0000   -59.6975     0.6032     0.1990    22.0000     7.0000     8.0000    22.0000    23.0000     3.0000     7.0000    23.0000    -3.0005     0.0010    20.7694    41.5442     2.6285     1.9997     0.0000     0.0407    14.4503    14.4453     0.0050     1.6561     1.0000     0.0000     4.9969     4.9639     2.3227    35.0136    35.0000     5.0000     2.200
      6  -115.0534      5.000     13.000 198728.000      8.392    41.5367    -0.0000   -59.6975     0.6032     0.1990    22.0000     7.0000     8.0000    22.0000    23.0000     3.0000     7.0000    23.0000    -3.0005     0.0010    20.7694    41.5442     2.6285     1.9997     0.0000     0.0340    14.4503    14.4453     0.0050     1.6561     1.0000     0.0000     5.0358     5.0030     2.3233    35.0125    35.0000     5.0000     2.200
      7  -115.1534      5.000     21.000 198486.000      8.382    41.5367     0.0000   -59.6975     0.6032     0.1990    22.0000     7.0000     8.0000    22.0000    23.0000     3.0000     7.0000    23.0000    -3.0005     0.0010    20.7694    41.5442     2.6285     1.9998     0.0000     0.0273    14.4503    14.4453     0.0050     1.6560     1.0000     0.0000     5.0411     5.0072     2.3240    34.9870    35.0000     5.0000     2.200
      8  -115.2534      5.000     33.000 198029.000      8.363    41.5367     0.0000   -59.6975     0.6032     0.1990    22.0000     7.0000     8.0000    22.0000    23.0000     3.0000     7.0000    23.0000    -3.0005     0.0010    20.7694    41.5442     2.6285     1.9998     0.0000     0.0206    14.4503    14.4453     0.0050     1.6560     1.0000     0.0000     5.0619     5.0283     2.3236    34.9893    35.0000     5.0000     2.200
      9  -115.3534      5.000    125.000 197676.000      8.348    41.5367     0.0000   -59.6975     0.6032     0.1990    22.0000     7.0000     8.0000    22.0000    23.0000     3.0000     7.0000    23.0000    -3.0005     0.0010    20.7694    41.5442     2.6285     1.9998     0.0000     0.0139    14.4503    14.4453     0.0050     1.6561     1.0000     0.0000     5.0494     5.0164     2.3254    35.0110    35.0000     5.0000     2.200
     10  -115.4534      5.000    272.000 196870.000      8.314    41.5367    -0.0000   -59.6975     0.6032     0.1990    22.0000     7.0000     8.0000    22.0000    23.0000     3.0000     7.0000    23.0000    -3.0005     0.0010    20.7694    41.5442     2.6285     1.9998     0.0000     0.0073    14.4503    14.4453     0.0050     1.6561     1.0000     0.0000     5.0350     5.0026     2.3259    35.0112    35.0000     5.0000     2.200
     11  -115.5534      5.000    370.000 198785.000      8.395    41.5367     0.0000   -59.6975     0.6032     0.1990    22.0000     7.0000     8.0000    22.0000    23.0000     3.0000     7.0000    23.0000    -3.0005     0.0010    20.7694    41.5442     2.6285     1.9998     0.0000     0.0006    14.4503    14.4453     0.0050     1.6561     1.0000     0.0000     5.0361     5.0027     2.3254    34.9860    35.0000     5.0000     2.200
     12  -115.6534      5.000    242.000 197596.000      8.344    41.5367    -0.0000   -59.6975     0.6032     0.1990    22.0000     7.0000     8.0000    22.0000    23.0000     3.0000     7.0000    23.0000    -3.0005     0.0010    20.7694    41.5442     2.6285     1.9998     0.0000    -0.0061    14.4503    14.4453     0.0050     1.6563     1.0000     0.0000     5.0364     5.0043     2.3261    34.9875    35.0000     5.0000     2.200
     13  -115.7534      5.000    114.000 198243.000      8.372    41.5367    -0.0000   -59.6975     0.6032     0.1990    22.0000     7.0000     8.0000    22.0000    23.0000     3.0000     7.0000    23.0000    -3.0005     0.0010    20.7694    41.5442     2.6285     1.9998     0.0000    -0.0128    14.4503    14.4453     0.0050     1.6563     1.0000     0.0000     5.0206     4.9873     2.3271    35.0117    35.0000     5.0000     2.200
     14  -115.8534      5.000     31.000 197254.000      8.330    41.5367    -0.0000   -59.6975     0.6032     0.1990    22.0000     7.0000     8.0000    22.0000    23.0000     3.0000     7.0000    23.0000    -3.0005     0.0010    20.7694    41.5442     2.6285     1.9998     0.0000    -0.0195    14.4503    14.4453     0.0050     1.6562     1.0000     0.0000     5.0441     5.0116     2.3270    35.0094    35.0000     5.0000     2.200
     15  -115.9534      5.000     16.000 197776.000      8.352    41.5367     0.0000   -59.6975     0.6032     0.1990    22.0000     7.0000     8.0000    22.0000    23.0000     3.0000     7.0000    23.0000    -3.0005     0.0010    20.7694    41.5442     2.6285     1.9998     0.0000    -0.0262    14.4503    14.4453     0.0050     1.6562     1.0000     0.0000     5.0388     5.0056     2.3275    34.9891    35.0000     5.0000     2.200
     16  -116.0534      5.000      8.000 198464.000      8.381    41.5367    -0.0000   -59.6975     0.6032     0.1990    22.0000     7.0000     8.0000    22.0000    23.0000     3.0000     7.0000    23.0000    -3.0005     0.0010    20.7694    41.5442     2.6285     1.9997     0.0000    -0.0328    14.4503    14.4453     0.0050     1.6562     1.0000     0.0000     5.0520     5.0196     2.3275    34.9928    35.0000     5.0000     2.200
     17  -116.1534      5.000      7.000 197154.000      8.326    41.5367     0.0000   -59.6975     0.6032     0.1990    22.0000     7.0000     8.0000    22.0000    23.0000     3.0000     7.0000    23.0000    -3.0005     0.0010    20.7694    41.5442     2.6285     1.9997     0.0000    -0.0395    14.4503    14.4453     0.0050     1.6553     1.0000     0.0000     5.0863     5.0531     2.3278    35.0146    35.0000     5.0000     2.200
     18  -116.2534      5.000      9.000 196983.000      8.319    41.5367     0.0001   -59.6975     0.6032     0.1990    22.0000     7.0000     8.0000    22.0000    23.0000     3.0000     7.0000    23.0000    -3.0005     0.0010    20.7694    41.5442     2.6285     1.9997     0.0000    -0.0462    14.4503    14.4453     0.0050     1.6551     1.0000     0.0000     5.0568     5.0247     2.3283    34.9995    35.0000     5.0000     2.200
     19  -116.3534      5.000     12.000 197634.000      8.346    41.5367     0.0001   -59.6975     0.6032     0.1990    22.0000     7.0000     8.0000    22.0000    23.0000     3.0000     7.0000    23.0000    -3.0005     0.0010    20.7694    41.5442     2.6285     1.9996     0.0000    -0.0529    14.4503    14.4453     0.0050     1.6550     1.0000     0.0000     5.0246     4.9916     2.3281    34.9854    35.0000     5.0000     2.200
     20  -116.4534      5.000     16.000 197267.000      8.331    41.5367    -0.0000   -59.6975     0.6032     0.1990    22.0000     7.0000     8.0000    22.0000    23.0000     3.0000     7.0000    23.0000    -3.0005     0.0010    20.7694    41.5442     2.6285     1.9996     0.0000    -0.0596    14.4503    14.4453     0.0050     1.6548     1.0000     0.0000     5.0844     5.0520     2.3283    34.9988    35.0000     5.0000     2.200
     21  -116.5534      5.000      8.000 198078.000      8.365    41.5367     0.0000   -59.6975     0.6032     0.1990    22.0000     7.0000     8.0000    22.0000    23.0000     3.0000     7.0000    23.0000    -3.0005     0.0010    20.7694    41.5442     2.6285     1.9995     0.0000    -0.0662    14.4503    14.4453     0.0050     1.6546     1.0000     0.0000     5.0724     5.0385     2.3283    35.0141    35.0000     5.0000     2.200
# Sum of Counts = 1359
# Center of Mass = -115.540081+/-4.432396
# Full Width Half-Maximum = 0.566696+/-1.418953
# 9:20:41 PM  8/16/2024   scan completed.
