# scan = 403
# date = 8/16/2024
# time = 7:09:35 PM
# proposal = 32912
# experiment = Quantum Phase Transition in Transverse Field Ising Ferromagnet HoV6Sn6
# experiment_number = 1031
# command = scanrel s1 1 -1 0.1
# builtin_command = scan s1 @(s1)+1 @(s1)+-1 0.100000
# users = Aashish Sapkota, Benjamin Ueland, Fei Li, Rob McQueeney, Tianxiong Han
# local_contact = Wei Tian, Bing Li
# scan_title = OP on Hc (2 0 0) H = 2 T, T = 4.92651 K
# monochromator = PG002
# analyzer = Pg002
# sense = +-+
# collimation = 40-40-40-80
# samplename = HoV6Sn6
# sampletype = crystal
# samplemosaic = 30.000000
# latticeconstants = 5.520013,5.520013,9.152013,90.000000,90.000000,120.000000
# ubmatrix = 0.015667,0.005926,0.108953,0.208596,0.104928,-0.008180,-0.000560,0.180868,0.001176
# mode = 0
# plane_normal = -0.010528,0.003477,0.999939
# ubconf = UB12Aug2024_54830PM.ini
# preset_type = normal 
# preset_channel = time
# preset_value = 5.000000
# def_x = s1
# def_y = detector
# col_headers = 
#   Pt.         s1       time   detector    monitor        mcu         m2      mag_i         s2        sgl        sgu   slitb_bt   slitb_lf   slitb_rt   slitb_tp   slita_bt   slita_lf   slita_rt   slita_tp        stl        stu         a1         a2          q          h          k          l         ei         ef          e        vti       temp     temp_2         lt         ht      1kpot  sorb_temp       sorb  sample_ht persistent_field
      1  -114.5534      5.000      9.000 198690.000      8.391    41.5367    -0.0000   -59.6975     0.6032     0.1990    22.0000     7.0000     8.0000    22.0000    23.0000     3.0000     7.0000    23.0000    -3.0005     0.0010    20.7694    41.5442     2.6285     1.9995     0.0000     0.0674    14.4503    14.4453     0.0050     1.6570     1.0000     0.0000     4.9981     4.9665     2.3221    35.0209    35.0000     5.0000     2.000
      2  -114.6534      5.000     10.000 197769.000      8.352    41.5367    -0.0000   -59.6975     0.6032     0.1990    22.0000     7.0000     8.0000    22.0000    23.0000     3.0000     7.0000    23.0000    -3.0005     0.0010    20.7694    41.5442     2.6285     1.9996     0.0000     0.0607    14.4503    14.4453     0.0050     1.6566     1.0000     0.0000     5.0281     4.9953     2.3230    34.9951    35.0000     5.0000     2.000
      3  -114.7534      5.000      9.000 198077.000      8.365    41.5367     0.0000   -59.6975     0.6032     0.1990    22.0000     7.0000     8.0000    22.0000    23.0000     3.0000     7.0000    23.0000    -3.0005     0.0010    20.7694    41.5442     2.6285     1.9996     0.0000     0.0540    14.4503    14.4453     0.0050     1.6564     1.0000     0.0000     5.0104     4.9778     2.3231    34.9830    35.0000     5.0000     2.000
      4  -114.8534      5.000     17.000 198696.000      8.391    41.5367    -0.0000   -59.6975     0.6032     0.1990    22.0000     7.0000     8.0000    22.0000    23.0000     3.0000     7.0000    23.0000    -3.0005     0.0010    20.7694    41.5442     2.6285     1.9997     0.0000     0.0473    14.4503    14.4453     0.0050     1.6561     1.0000     0.0000     5.0481     5.0145     2.3233    35.0131    35.0000     5.0000     2.000
      5  -114.9534      5.000      6.000 198468.000      8.381    41.5367     0.0000   -59.6975     0.6032     0.1990    22.0000     7.0000     8.0000    22.0000    23.0000     3.0000     7.0000    23.0000    -3.0005     0.0010    20.7694    41.5442     2.6285     1.9997     0.0000     0.0407    14.4503    14.4453     0.0050     1.6559     1.0000     0.0000     5.0509     5.0198     2.3250    35.0162    35.0000     5.0000     2.000
      6  -115.0534      5.000     15.000 198857.000      8.398    41.5367     0.0001   -59.6975     0.6032     0.1990    22.0000     7.0000     8.0000    22.0000    23.0000     3.0000     7.0000    23.0000    -3.0005     0.0010    20.7694    41.5442     2.6285     1.9997     0.0000     0.0340    14.4503    14.4453     0.0050     1.6558     1.0000     0.0000     5.0805     5.0475     2.3249    34.9867    35.0000     5.0000     2.000
      7  -115.1534      5.000     14.000 198377.000      8.378    41.5367    -0.0000   -59.6975     0.6032     0.1990    22.0000     7.0000     8.0000    22.0000    23.0000     3.0000     7.0000    23.0000    -3.0005     0.0010    20.7694    41.5442     2.6285     1.9998     0.0000     0.0273    14.4503    14.4453     0.0050     1.6557     1.0000     0.0000     5.0637     5.0309     2.3256    34.9917    35.0000     5.0000     2.000
      8  -115.2534      5.000     40.000 198595.000      8.387    41.5367    -0.0000   -59.6975     0.6032     0.1990    22.0000     7.0000     8.0000    22.0000    23.0000     3.0000     7.0000    23.0000    -3.0005     0.0010    20.7694    41.5442     2.6285     1.9998     0.0000     0.0206    14.4503    14.4453     0.0050     1.6556     1.0000     0.0000     5.0582     5.0252     2.3266    35.0149    35.0000     5.0000     2.000
      9  -115.3534      5.000    124.000 199007.000      8.404    41.5367    -0.0000   -59.6975     0.6032     0.1990    22.0000     7.0000     8.0000    22.0000    23.0000     3.0000     7.0000    23.0000    -3.0005     0.0010    20.7694    41.5442     2.6285     1.9998     0.0000     0.0139    14.4503    14.4453     0.0050     1.6556     1.0000     0.0000     5.0423     5.0085     2.3279    35.0072    35.0000     5.0000     2.000
     10  -115.4534      5.000    293.000 198801.000      8.395    41.5367     0.0001   -59.6975     0.6032     0.1990    22.0000     7.0000     8.0000    22.0000    23.0000     3.0000     7.0000    23.0000    -3.0005     0.0010    20.7694    41.5442     2.6285     1.9998     0.0000     0.0073    14.4503    14.4453     0.0050     1.6555     1.0000     0.0000     5.0823     5.0499     2.3275    34.9825    35.0000     5.0000     2.000
     11  -115.5534      5.000    349.000 198389.000      8.378    41.5367    -0.0000   -59.6975     0.6032     0.1990    22.0000     7.0000     8.0000    22.0000    23.0000     3.0000     7.0000    23.0000    -3.0005     0.0010    20.7694    41.5442     2.6285     1.9998     0.0000     0.0006    14.4503    14.4453     0.0050     1.6556     1.0000     0.0000     5.0475     5.0139     2.3272    34.9976    35.0000     5.0000     2.000
     12  -115.6534      5.000    239.000 198180.000      8.369    41.5367    -0.0000   -59.6975     0.6032     0.1990    22.0000     7.0000     8.0000    22.0000    23.0000     3.0000     7.0000    23.0000    -3.0005     0.0010    20.7694    41.5442     2.6285     1.9998     0.0000    -0.0061    14.4503    14.4453     0.0050     1.6557     1.0000     0.0000     5.0465     5.0138     2.3283    35.0164    35.0000     5.0000     2.000
     13  -115.7534      5.000    108.000 198659.000      8.389    41.5367    -0.0000   -59.6975     0.6032     0.1990    22.0000     7.0000     8.0000    22.0000    23.0000     3.0000     7.0000    23.0000    -3.0005     0.0010    20.7694    41.5442     2.6285     1.9998     0.0000    -0.0128    14.4503    14.4453     0.0050     1.6557     1.0000     0.0000     5.0947     5.0610     2.3280    35.0036    35.0000     5.0000     2.000
     14  -115.8534      5.000     37.000 199191.000      8.412    41.5367     0.0000   -59.6975     0.6032     0.1990    22.0000     7.0000     8.0000    22.0000    23.0000     3.0000     7.0000    23.0000    -3.0005     0.0010    20.7694    41.5442     2.6285     1.9998     0.0000    -0.0195    14.4503    14.4453     0.0050     1.6558     1.0000     0.0000     5.0971     5.0656     2.3279    34.9835    35.0000     5.0000     2.000
     15  -115.9534      5.000     15.000 198250.000      8.372    41.5367    -0.0000   -59.6975     0.6032     0.1990    22.0000     7.0000     8.0000    22.0000    23.0000     3.0000     7.0000    23.0000    -3.0005     0.0010    20.7694    41.5442     2.6285     1.9998     0.0000    -0.0262    14.4503    14.4453     0.0050     1.6560     1.0000     0.0000     5.0998     5.0677     2.3283    34.9957    35.0000     5.0000     2.000
     16  -116.0534      5.000     11.000 198409.000      8.379    41.5367    -0.0000   -59.6975     0.6032     0.1990    22.0000     7.0000     8.0000    22.0000    23.0000     3.0000     7.0000    23.0000    -3.0005     0.0010    20.7694    41.5442     2.6285     1.9997     0.0000    -0.0328    14.4503    14.4453     0.0050     1.6567     1.0000     0.0000     5.1112     5.0773     2.3281    35.0158    35.0000     5.0000     2.000
     17  -116.1534      5.000      9.000 198818.000      8.396    41.5367    -0.0000   -59.6975     0.6032     0.1990    22.0000     7.0000     8.0000    22.0000    23.0000     3.0000     7.0000    23.0000    -3.0005     0.0010    20.7694    41.5442     2.6285     1.9997     0.0000    -0.0395    14.4503    14.4453     0.0050     1.6569     1.0000     0.0000     5.1369     5.1053     2.3291    34.9993    35.0000     5.0000     2.000
     18  -116.2534      5.000      9.000 198578.000      8.386    41.5367     0.0001   -59.6975     0.6032     0.1990    22.0000     7.0000     8.0000    22.0000    23.0000     3.0000     7.0000    23.0000    -3.0005     0.0010    20.7694    41.5442     2.6285     1.9997     0.0000    -0.0462    14.4503    14.4453     0.0050     1.6570     1.0000     0.0000     5.1101     5.0791     2.3274    34.9845    35.0000     5.0000     2.000
     19  -116.3534      5.000     14.000 198362.000      8.377    41.5367     0.0000   -59.6975     0.6032     0.1990    22.0000     7.0000     8.0000    22.0000    23.0000     3.0000     7.0000    23.0000    -3.0005     0.0010    20.7694    41.5442     2.6285     1.9996     0.0000    -0.0529    14.4503    14.4453     0.0050     1.6571     1.0000     0.0000     5.1624     5.1307     2.3275    35.0013    35.0000     5.0000     2.000
     20  -116.4534      5.000     12.000 198988.000      8.403    41.5367     0.0001   -59.6975     0.6032     0.1990    22.0000     7.0000     8.0000    22.0000    23.0000     3.0000     7.0000    23.0000    -3.0005     0.0010    20.7694    41.5442     2.6285     1.9996     0.0000    -0.0596    14.4503    14.4453     0.0050     1.6571     1.0000     0.0000     5.0743     5.0420     2.3285    35.0137    35.0000     5.0000     2.000
     21  -116.5534      5.000      6.000 198657.000      8.389    41.5367    -0.0000   -59.6975     0.6032     0.1990    22.0000     7.0000     8.0000    22.0000    23.0000     3.0000     7.0000    23.0000    -3.0005     0.0010    20.7694    41.5442     2.6285     1.9995     0.0000    -0.0662    14.4503    14.4453     0.0050     1.6570     1.0000     0.0000     5.0573     5.0250     2.3282    34.9928    35.0000     5.0000     2.000
# Sum of Counts = 1346
# Center of Mass = -115.544410+/-4.453916
# Full Width Half-Maximum = 0.540324+/-1.470778
# 7:11:52 PM  8/16/2024   scan completed.
