# scan = 424
# date = 8/17/2024
# time = 12:04:36 AM
# proposal = 32912
# experiment = Quantum Phase Transition in Transverse Field Ising Ferromagnet HoV6Sn6
# experiment_number = 1031
# command = scan mag_i 0 5.5 0.05 preset time 10
# builtin_command = scan mag_i 0 5.5 0.05 preset time 10
# users = Aashish Sapkota, Benjamin Ueland, Fei Li, Rob McQueeney, Tianxiong Han
# local_contact = Wei Tian, Bing Li
# scan_title = HoV6Sn6, field dependence of (@h) 0.00001 0.00057), T = 0.31246 K
# monochromator = PG002
# analyzer = Pg002
# sense = +-+
# collimation = 40-40-40-80
# samplename = HoV6Sn6
# sampletype = crystal
# samplemosaic = 30.000000
# latticeconstants = 5.520013,5.520013,9.152013,90.000000,90.000000,120.000000
# ubmatrix = 0.015667,0.005926,0.108953,0.208596,0.104928,-0.008180,-0.000560,0.180868,0.001176
# mode = 0
# plane_normal = -0.010528,0.003477,0.999939
# ubconf = UB12Aug2024_54830PM.ini
# preset_type = normal
# preset_channel = time
# preset_value = 10.000000
# def_x = mag_i
# def_y = detector
# col_headers =
#   Pt.      mag_i       time   detector    monitor        mcu         m2         s1         s2        sgl        sgu   slitb_bt   slitb_lf   slitb_rt   slitb_tp   slita_bt   slita_lf   slita_rt   slita_tp        stl        stu         a1         a2          q          h          k          l         ei         ef          e        vti       temp     temp_2         lt         ht      1kpot  sorb_temp       sorb  sample_ht persistent_field
      1    -0.0000     10.000   1855.000 396529.000     16.746    41.5367  -115.5534   -59.6975     0.6032     0.1990    22.0000     7.0000     8.0000    22.0000    23.0000     3.0000     7.0000    23.0000    -3.0005     0.0010    20.7694    41.5442     2.6285     1.9998     0.0000     0.0006    14.4503    14.4453     0.0050     1.6730     1.0000     0.0000     0.3259     0.3304     1.7216     9.9445    10.0000     0.0000    -0.000
      2     0.0501     10.000   1922.000 395322.000     16.695    41.5367  -115.5534   -59.6975     0.6032     0.1990    22.0000     7.0000     8.0000    22.0000    23.0000     3.0000     7.0000    23.0000    -3.0005     0.0010    20.7694    41.5442     2.6285     1.9998     0.0000     0.0006    14.4503    14.4453     0.0050     1.6671     1.0000     0.0000     0.3269     0.3318     1.7104     9.5905    10.0000     0.0000     0.050
      3     0.1001     10.000   1901.000 396902.000     16.761    41.5367  -115.5534   -59.6975     0.6032     0.1990    22.0000     7.0000     8.0000    22.0000    23.0000     3.0000     7.0000    23.0000    -3.0005     0.0010    20.7694    41.5442     2.6285     1.9998     0.0000     0.0006    14.4503    14.4453     0.0050     1.6630     1.0000     0.0000     0.3265     0.3322     1.7051     9.9718    10.0000     0.0000     0.100
      4     0.1500     10.000   1919.000 397659.000     16.793    41.5367  -115.5534   -59.6975     0.6032     0.1990    22.0000     7.0000     8.0000    22.0000    23.0000     3.0000     7.0000    23.0000    -3.0005     0.0010    20.7694    41.5441     2.6285     1.9998     0.0000     0.0006    14.4503    14.4453     0.0050     1.6592     1.0000     0.0000     0.3254     0.3319     1.7062    11.0919    10.0000     0.0000     0.150
      5     0.2001     10.000   1860.000 396592.000     16.748    41.5367  -115.5534   -59.6975     0.6032     0.1990    22.0000     7.0000     8.0000    22.0000    23.0000     3.0000     7.0000    23.0000    -3.0005     0.0010    20.7694    41.5442     2.6285     1.9998     0.0000     0.0006    14.4503    14.4453     0.0050     1.6566     1.0000     0.0000     0.3252     0.3331     1.7046    10.3287    10.0000     0.0000     0.200
      6     0.2501     10.000   1877.000 397091.000     16.769    41.5367  -115.5534   -59.6975     0.6032     0.1990    22.0000     7.0000     8.0000    22.0000    23.0000     3.0000     7.0000    23.0000    -3.0005     0.0010    20.7694    41.5442     2.6285     1.9998     0.0000     0.0006    14.4503    14.4453     0.0050     1.6540     1.0000     0.0000     0.3243     0.3338     1.6983     9.9552    10.0000     0.0000     0.250
      7     0.3001     10.000   1916.000 397089.000     16.769    41.5367  -115.5534   -59.6975     0.6032     0.1990    22.0000     7.0000     8.0000    22.0000    23.0000     3.0000     7.0000    23.0000    -3.0005     0.0010    20.7694    41.5442     2.6285     1.9998     0.0000     0.0006    14.4503    14.4453     0.0050     1.6515     1.0000     0.0000     0.3232     0.3345     1.6954     9.7145    10.0000     0.0000     0.300
      8     0.3501     10.000   1980.000 397724.000     16.796    41.5367  -115.5534   -59.6975     0.6032     0.1990    22.0000     7.0000     8.0000    22.0000    23.0000     3.0000     7.0000    23.0000    -3.0005     0.0010    20.7694    41.5442     2.6285     1.9998     0.0000     0.0006    14.4503    14.4453     0.0050     1.6490     1.0000     0.0000     0.3224     0.3353     1.6901     9.5386    10.0000     0.0000     0.350
      9     0.4001     10.000   1863.000 398912.000     16.846    41.5367  -115.5534   -59.6975     0.6032     0.1990    22.0000     7.0000     8.0000    22.0000    23.0000     3.0000     7.0000    23.0000    -3.0005     0.0010    20.7694    41.5441     2.6285     1.9998     0.0000     0.0006    14.4503    14.4453     0.0050     1.6446     1.0000     0.0000     0.3216     0.3361     1.6862     9.7281    10.0000     0.0000     0.400
     10     0.4501     10.000   1826.000 396612.000     16.749    41.5367  -115.5534   -59.6975     0.6032     0.1990    22.0000     7.0000     8.0000    22.0000    23.0000     3.0000     7.0000    23.0000    -3.0005     0.0010    20.7694    41.5442     2.6285     1.9998     0.0000     0.0006    14.4503    14.4453     0.0050     1.6384     1.0000     0.0000     0.3209     0.3370     1.6843    10.4576    10.0000     0.0000     0.450
     11     0.5001     10.000   1848.000 396777.000     16.756    41.5367  -115.5534   -59.6975     0.6032     0.1990    22.0000     7.0000     8.0000    22.0000    23.0000     3.0000     7.0000    23.0000    -3.0005     0.0010    20.7694    41.5441     2.6285     1.9998     0.0000     0.0006    14.4503    14.4453     0.0050     1.6329     1.0000     0.0000     0.3199     0.3378     1.6803    11.0906    10.0000     0.0000     0.500
     12     0.5501     10.000   1812.000 397791.000     16.799    41.5367  -115.5534   -59.6975     0.6032     0.1990    22.0000     7.0000     8.0000    22.0000    23.0000     3.0000     7.0000    23.0000    -3.0005     0.0010    20.7694    41.5442     2.6285     1.9998     0.0000     0.0006    14.4503    14.4453     0.0050     1.6311     1.0000     0.0000     0.3194     0.3390     1.6743     9.7030    10.0000     0.0000     0.550
     13     0.6002     10.000   1791.000 395814.000     16.715    41.5367  -115.5534   -59.6975     0.6032     0.1990    22.0000     7.0000     8.0000    22.0000    23.0000     3.0000     7.0000    23.0000    -3.0005     0.0010    20.7694    41.5442     2.6285     1.9998     0.0000     0.0006    14.4503    14.4453     0.0050     1.6313     1.0000     0.0000     0.3190     0.3402     1.6747     9.5781    10.0000     0.0000     0.600
     14     0.6501     10.000   1837.000 398310.000     16.821    41.5367  -115.5534   -59.6975     0.6032     0.1990    22.0000     7.0000     8.0000    22.0000    23.0000     3.0000     7.0000    23.0000    -3.0005     0.0010    20.7694    41.5442     2.6285     1.9998     0.0000     0.0006    14.4503    14.4453     0.0050     1.6338     1.0000     0.0000     0.3186     0.3412     1.6799    10.4697    10.0000     0.0000     0.650
     15     0.7000     10.000   1854.000 398100.000     16.812    41.5367  -115.5534   -59.6975     0.6032     0.1990    22.0000     7.0000     8.0000    22.0000    23.0000     3.0000     7.0000    23.0000    -3.0005     0.0010    20.7694    41.5442     2.6285     1.9998     0.0000     0.0006    14.4503    14.4453     0.0050     1.6354     1.0000     0.0000     0.3179     0.3422     1.6808    11.0816    10.0000     0.0000     0.700
     16     0.7501     10.000   1811.000 398855.000     16.844    41.5367  -115.5534   -59.6975     0.6032     0.1990    22.0000     7.0000     8.0000    22.0000    23.0000     3.0000     7.0000    23.0000    -3.0005     0.0010    20.7694    41.5441     2.6285     1.9998     0.0000     0.0006    14.4503    14.4453     0.0050     1.6385     1.0000     0.0000     0.3175     0.3434     1.6808     9.7132    10.0000     0.0000     0.750
     17     0.8000     10.000   1754.000 397442.000     16.784    41.5367  -115.5534   -59.6975     0.6032     0.1990    22.0000     7.0000     8.0000    22.0000    23.0000     3.0000     7.0000    23.0000    -3.0005     0.0010    20.7694    41.5441     2.6285     1.9998     0.0000     0.0006    14.4503    14.4453     0.0050     1.6418     1.0000     0.0000     0.3163     0.3438     1.6863    10.2326    10.0000     0.0000     0.800
     18     0.8501     10.000   1774.000 397661.000     16.793    41.5367  -115.5534   -59.6975     0.6032     0.1990    22.0000     7.0000     8.0000    22.0000    23.0000     3.0000     7.0000    23.0000    -3.0005     0.0010    20.7694    41.5442     2.6285     1.9998     0.0000     0.0006    14.4503    14.4453     0.0050     1.6448     1.0000     0.0000     0.3164     0.3453     1.6873     9.5754    10.0000     0.0000     0.850
     19     0.9001     10.000   1684.000 396073.000     16.726    41.5367  -115.5534   -59.6975     0.6032     0.1990    22.0000     7.0000     8.0000    22.0000    23.0000     3.0000     7.0000    23.0000    -3.0005     0.0010    20.7694    41.5442     2.6285     1.9998     0.0000     0.0006    14.4503    14.4453     0.0050     1.6483     1.0000     0.0000     0.3163     0.3464     1.6949    10.3016    10.0000     0.0000     0.900
     20     0.9501     10.000   1696.000 398296.000     16.820    41.5367  -115.5534   -59.6975     0.6032     0.1990    22.0000     7.0000     8.0000    22.0000    23.0000     3.0000     7.0000    23.0000    -3.0005     0.0010    20.7694    41.5442     2.6285     1.9998     0.0000     0.0006    14.4503    14.4453     0.0050     1.6508     1.0000     0.0000     0.3157     0.3474     1.6972    11.0849    10.0000     0.0000     0.950
     21     1.0001     10.000   1549.000 397368.000     16.781    41.5367  -115.5534   -59.6975     0.6032     0.1990    22.0000     7.0000     8.0000    22.0000    23.0000     3.0000     7.0000    23.0000    -3.0005     0.0010    20.7694    41.5442     2.6285     1.9998     0.0000     0.0006    14.4503    14.4453     0.0050     1.6528     1.0000     0.0000     0.3154     0.3485     1.6973    10.8868    10.0000     0.0000     1.000
     22     1.0500     10.000   1660.000 396612.000     16.749    41.5367  -115.5534   -59.6975     0.6032     0.1990    22.0000     7.0000     8.0000    22.0000    23.0000     3.0000     7.0000    23.0000    -3.0005     0.0010    20.7694    41.5441     2.6285     1.9998     0.0000     0.0006    14.4503    14.4453     0.0050     1.6557     1.0000     0.0000     0.3147     0.3492     1.6998     9.7617    10.0000     0.0000     1.050
     23     1.1001     10.000   1562.000 397701.000     16.795    41.5367  -115.5534   -59.6975     0.6032     0.1990    22.0000     7.0000     8.0000    22.0000    23.0000     3.0000     7.0000    23.0000    -3.0005     0.0010    20.7694    41.5442     2.6285     1.9998     0.0000     0.0006    14.4503    14.4453     0.0050     1.6566     1.0000     0.0000     0.3148     0.3506     1.7024    10.4771    10.0000     0.0000     1.100
     24     1.1500     10.000   1599.000 396861.000     16.760    41.5367  -115.5534   -59.6975     0.6032     0.1990    22.0000     7.0000     8.0000    22.0000    23.0000     3.0000     7.0000    23.0000    -3.0005     0.0010    20.7694    41.5442     2.6285     1.9998     0.0000     0.0006    14.4503    14.4453     0.0050     1.6569     1.0000     0.0000     0.3144     0.3516     1.7014    11.0860    10.0000     0.0000     1.150
     25     1.2000     10.000   1482.000 396732.000     16.754    41.5367  -115.5534   -59.6975     0.6032     0.1990    22.0000     7.0000     8.0000    22.0000    23.0000     3.0000     7.0000    23.0000    -3.0005     0.0010    20.7694    41.5442     2.6285     1.9998     0.0000     0.0006    14.4503    14.4453     0.0050     1.6569     1.0000     0.0000     0.3144     0.3529     1.7014     9.7503    10.0000     0.0000     1.200
     26     1.2501     10.000   1539.000 398233.000     16.818    41.5367  -115.5534   -59.6975     0.6032     0.1990    22.0000     7.0000     8.0000    22.0000    23.0000     3.0000     7.0000    23.0000    -3.0005     0.0010    20.7694    41.5441     2.6285     1.9998     0.0000     0.0006    14.4503    14.4453     0.0050     1.6568     1.0000     0.0000     0.3142     0.3539     1.6967     9.9433    10.0000     0.0000     1.250
     27     1.3001     10.000   1443.000 396588.000     16.748    41.5367  -115.5534   -59.6975     0.6032     0.1990    22.0000     7.0000     8.0000    22.0000    23.0000     3.0000     7.0000    23.0000    -3.0005     0.0010    20.7694    41.5442     2.6285     1.9998     0.0000     0.0006    14.4503    14.4453     0.0050     1.6565     1.0000     0.0000     0.3139     0.3549     1.7004    10.4710    10.0000     0.0000     1.300
     28     1.3501     10.000   1411.000 396782.000     16.756    41.5367  -115.5534   -59.6975     0.6032     0.1990    22.0000     7.0000     8.0000    22.0000    23.0000     3.0000     7.0000    23.0000    -3.0005     0.0010    20.7694    41.5442     2.6285     1.9998     0.0000     0.0006    14.4503    14.4453     0.0050     1.6564     1.0000     0.0000     0.3135     0.3558     1.7000    11.0921    10.0000     0.0000     1.350
     29     1.4001     10.000   1376.000 396485.000     16.744    41.5367  -115.5534   -59.6975     0.6032     0.1990    22.0000     7.0000     8.0000    22.0000    23.0000     3.0000     7.0000    23.0000    -3.0005     0.0010    20.7694    41.5442     2.6285     1.9998     0.0000     0.0006    14.4503    14.4453     0.0050     1.6566     1.0000     0.0000     0.3134     0.3569     1.6966     9.5749    10.0000     0.0000     1.400
     30     1.4501     10.000   1300.000 396540.000     16.746    41.5367  -115.5534   -59.6975     0.6032     0.1990    22.0000     7.0000     8.0000    22.0000    23.0000     3.0000     7.0000    23.0000    -3.0005     0.0010    20.7694    41.5441     2.6285     1.9998     0.0000     0.0006    14.4503    14.4453     0.0050     1.6568     1.0000     0.0000     0.3133     0.3579     1.6985     9.9401    10.0000     0.0000     1.450
     31     1.5001     10.000   1253.000 397572.000     16.790    41.5367  -115.5534   -59.6975     0.6032     0.1990    22.0000     7.0000     8.0000    22.0000    23.0000     3.0000     7.0000    23.0000    -3.0005     0.0010    20.7694    41.5442     2.6285     1.9998     0.0000     0.0006    14.4503    14.4453     0.0050     1.6567     1.0000     0.0000     0.3131     0.3588     1.7002    10.6464    10.0000     0.0000     1.500
     32     1.5500     10.000   1159.000 398651.000     16.835    41.5367  -115.5534   -59.6975     0.6032     0.1990    22.0000     7.0000     8.0000    22.0000    23.0000     3.0000     7.0000    23.0000    -3.0005     0.0010    20.7694    41.5442     2.6285     1.9998     0.0000     0.0006    14.4503    14.4453     0.0050     1.6566     1.0000     0.0000     0.3123     0.3592     1.6996    10.5734    10.0000     0.0000     1.550
     33     1.6001     10.000   1154.000 397681.000     16.794    41.5367  -115.5534   -59.6975     0.6032     0.1990    22.0000     7.0000     8.0000    22.0000    23.0000     3.0000     7.0000    23.0000    -3.0005     0.0010    20.7694    41.5442     2.6285     1.9998     0.0000     0.0006    14.4503    14.4453     0.0050     1.6567     1.0000     0.0000     0.3123     0.3603     1.7029    11.0801    10.0000     0.0000     1.600
     34     1.6500     10.000   1090.000 399784.000     16.883    41.5367  -115.5534   -59.6975     0.6032     0.1990    22.0000     7.0000     8.0000    22.0000    23.0000     3.0000     7.0000    23.0000    -3.0005     0.0010    20.7694    41.5442     2.6285     1.9998     0.0000     0.0006    14.4503    14.4453     0.0050     1.6568     1.0000     0.0000     0.3117     0.3609     1.6965     9.5761    10.0000     0.0000     1.650
     35     1.7001     10.000   1001.000 397368.000     16.781    41.5367  -115.5534   -59.6975     0.6032     0.1990    22.0000     7.0000     8.0000    22.0000    23.0000     3.0000     7.0000    23.0000    -3.0005     0.0010    20.7694    41.5441     2.6285     1.9998     0.0000     0.0006    14.4503    14.4453     0.0050     1.6567     1.0000     0.0000     0.3121     0.3622     1.6978     9.8722    10.0000     0.0000     1.700
     36     1.7500     10.000    997.000 397532.000     16.788    41.5367  -115.5534   -59.6975     0.6032     0.1990    22.0000     7.0000     8.0000    22.0000    23.0000     3.0000     7.0000    23.0000    -3.0005     0.0010    20.7694    41.5442     2.6285     1.9998     0.0000     0.0006    14.4503    14.4453     0.0050     1.6569     1.0000     0.0000     0.3115     0.3626     1.6980    10.6636    10.0000     0.0000     1.750
     37     1.8001     10.000   1002.000 397760.000     16.798    41.5367  -115.5534   -59.6975     0.6032     0.1990    22.0000     7.0000     8.0000    22.0000    23.0000     3.0000     7.0000    23.0000    -3.0005     0.0010    20.7694    41.5442     2.6285     1.9998     0.0000     0.0006    14.4503    14.4453     0.0050     1.6567     1.0000     0.0000     0.3115     0.3638     1.7001    11.0747    10.0000     0.0000     1.800
     38     1.8501     10.000    963.000 398094.000     16.812    41.5367  -115.5534   -59.6975     0.6032     0.1990    22.0000     7.0000     8.0000    22.0000    23.0000     3.0000     7.0000    23.0000    -3.0005     0.0010    20.7694    41.5442     2.6285     1.9998     0.0000     0.0006    14.4503    14.4453     0.0050     1.6569     1.0000     0.0000     0.3116     0.3649     1.6959     9.6754    10.0000     0.0000     1.850
     39     1.9001     10.000    959.000 397317.000     16.779    41.5367  -115.5534   -59.6975     0.6032     0.1990    22.0000     7.0000     8.0000    22.0000    23.0000     3.0000     7.0000    23.0000    -3.0005     0.0010    20.7694    41.5442     2.6285     1.9998     0.0000     0.0006    14.4503    14.4453     0.0050     1.6569     1.0000     0.0000     0.3116     0.3659     1.6969    10.3086    10.0000     0.0000     1.900
     40     1.9501     10.000   1001.000 399449.000     16.869    41.5367  -115.5534   -59.6975     0.6032     0.1990    22.0000     7.0000     8.0000    22.0000    23.0000     3.0000     7.0000    23.0000    -3.0005     0.0010    20.7694    41.5441     2.6285     1.9998     0.0000     0.0006    14.4503    14.4453     0.0050     1.6571     1.0000     0.0000     0.3115     0.3668     1.6977    10.8047    10.0000     0.0000     1.950
     41     2.0000     10.000    987.000 397478.000     16.786    41.5367  -115.5534   -59.6975     0.6032     0.1990    22.0000     7.0000     8.0000    22.0000    23.0000     3.0000     7.0000    23.0000    -3.0005     0.0010    20.7694    41.5441     2.6285     1.9998     0.0000     0.0006    14.4503    14.4453     0.0050     1.6574     1.0000     0.0000     0.3106     0.3671     1.6912    10.5666    10.0000     0.0000     2.000
     42     2.0500     10.000    992.000 396264.000     16.734    41.5367  -115.5534   -59.6975     0.6032     0.1990    22.0000     7.0000     8.0000    22.0000    23.0000     3.0000     7.0000    23.0000    -3.0005     0.0010    20.7694    41.5442     2.6285     1.9998     0.0000     0.0006    14.4503    14.4453     0.0050     1.6573     1.0000     0.0000     0.3103     0.3678     1.6879    10.8815    10.0000     0.0000     2.050
