# scan = 42
# date = 9/29/2008
# time = 4:27:59 AM
# proposal = IPTS-890
# experiment = FM short-range ord in AFM Tb5Ge4
# experiment_number = 266
# command = scan h .64 .98 .01 k 1.36 1.02 -.01 l 0 e -20 preset mcu 150
# builtin_command = scan h .64 .98 .01 k 1.36 1.02 -.01 l 0 e -20 preset mcu 150
# users = Rob McQueeney, Andreas Kreyssig, Alan Goldman, Wei Tian, Jerel Zarestky
# local_contact = J.L. Zarestky
# scan_title = sw; T110 fr 110, 20 meV
# monochromator = PG002
# analyzer = Pg002
# sense = +-+
# collimation = 48-48-40-68
# samplename = Tb5Ge4 sc
# sampletype = crystal
# samplemosaic = 30.000000
# latticeconstants = 2.890000,2.890000,2.890000,90.000000,90.000000,90.000000
# ubmatrix = 0.345665,0.015659,-0.001051,-0.015693,0.345190,-0.018109,0.000229,0.018138,0.345545
# mode = 0
# plane_normal = -0.003037,-0.052334,0.998625
# ubconf = UB28Sep2008_20532PM.ini
# preset_type = normal 
# preset_channel = mcu
# preset_value = 150.000000
# def_x = h
# def_y = detector
# col_headers = 
#   Pt.          h          k          l          e       time   detector    monitor        mcu         m2         s1         s2        sgl        sgu        stl        stu         a1         a2          q         ei         ef cold_tip_[a] sample_[b]       temp
      1     0.6400     1.3600    -0.0000   -19.9986    147.426     43.000 630000.000    150.000    41.2647   -65.5935   -52.9326     0.1715    -3.0000     0.0020     0.0010    13.2392    26.4822     3.2678    14.6330    34.6316     1.0000   480.0000   300.000
      2     0.6500     1.3500    -0.0000   -19.9986    147.718     40.000 630000.000    150.000    41.2647   -64.8740   -52.7111     0.1715    -3.0000     0.0020     0.0010    13.2392    26.4822     3.2575    14.6330    34.6316     1.0000   480.0000   300.000
      3     0.6600     1.3400    -0.0000   -20.0012    147.327     38.000 630000.000    150.000    41.2647   -64.1545   -52.4946     0.1715    -3.0000     0.0020     0.0010    13.2392    26.4812     3.2476    14.6330    34.6342     1.0000   480.0000   300.000
      4     0.6700     1.3300    -0.0000   -19.9986    147.560     37.000 630000.000    150.000    41.2647   -63.4370   -52.2820     0.1715    -3.0000     0.0020     0.0010    13.2392    26.4822     3.2376    14.6330    34.6316     1.0000   480.0000   300.000
      5     0.6801     1.3200    -0.0000   -19.9986    147.650     41.000 630000.000    150.000    41.2647   -62.7224   -52.0802     0.1715    -3.0000     0.0020     0.0010    13.2392    26.4822     3.2283    14.6330    34.6316     1.0000   480.0000   300.000
      6     0.6900     1.3100    -0.0000   -20.0012    147.393     35.000 630000.000    150.000    41.2647   -62.0079   -51.8794     0.1715    -3.0000     0.0020     0.0010    13.2392    26.4812     3.2191    14.6330    34.6342     1.0000   480.0000   300.000
      7     0.7000     1.3000    -0.0000   -19.9986    147.511     33.000 630000.000    150.000    41.2647   -61.2972   -51.6845     0.1715    -3.0000     0.0020     0.0010    13.2392    26.4822     3.2100    14.6330    34.6316     1.0000   480.0000   300.000
      8     0.7100     1.2900    -0.0000   -20.0012    147.906     35.000 630000.000    150.000    41.2647   -60.5876   -51.4985     0.1715    -3.0000     0.0020     0.0010    13.2392    26.4812     3.2015    14.6330    34.6342     1.0000   480.0000   300.000
      9     0.7200     1.2800    -0.0000   -20.0012    147.420     48.000 630000.000    150.000    41.2647   -59.8809   -51.3154     0.1715    -3.0000     0.0020     0.0010    13.2392    26.4812     3.1930    14.6330    34.6342     1.0000   480.0000   300.000
     10     0.7301     1.2700    -0.0000   -20.0012    147.483     28.000 630000.000    150.000    41.2647   -59.1772   -51.1422     0.1715    -3.0000     0.0020     0.0010    13.2392    26.4812     3.1849    14.6330    34.6342     1.0000   480.0000   300.000
     11     0.7400     1.2600    -0.0000   -20.0012    147.158     37.000 630000.000    150.000    41.2647   -58.4764   -50.9709     0.1715    -3.0000     0.0020     0.0010    13.2392    26.4812     3.1770    14.6330    34.6342     1.0000   480.0000   300.000
     12     0.7500     1.2500    -0.0000   -19.9986    147.442     34.000 630000.000    150.000    41.2647   -57.7776   -50.8066     0.1715    -3.0000     0.0020     0.0010    13.2392    26.4822     3.1693    14.6330    34.6316     1.0000   480.0000   300.000
     13     0.7600     1.2400    -0.0000   -20.0012    147.721     33.000 630000.000    150.000    41.2647   -57.0827   -50.6491     0.1715    -3.0000     0.0020     0.0010    13.2392    26.4812     3.1621    14.6330    34.6342     1.0000   480.0000   300.000
     14     0.7700     1.2300    -0.0000   -19.9986    147.322     40.000 630000.000    150.000    41.2647   -56.3898   -50.4975     0.1715    -3.0000     0.0020     0.0010    13.2392    26.4822     3.1549    14.6330    34.6316     1.0000   480.0000   300.000
     15     0.7800     1.2200    -0.0000   -20.0012    147.304     37.000 630000.000    150.000    41.2647   -55.7018   -50.3509     0.1715    -3.0000     0.0020     0.0010    13.2392    26.4812     3.1482    14.6330    34.6342     1.0000   480.0000   300.000
     16     0.7900     1.2100    -0.0000   -19.9986    147.810     43.000 630000.000    150.000    41.2647   -55.0157   -50.2111     0.1715    -3.0000     0.0020     0.0010    13.2392    26.4822     3.1416    14.6330    34.6316     1.0000   480.0000   300.000
     17     0.8001     1.2000    -0.0000   -20.0012    147.278     72.000 630000.000    150.000    41.2647   -54.3337   -50.0802     0.1715    -3.0000     0.0020     0.0010    13.2392    26.4812     3.1357    14.6330    34.6342     1.0000   480.0000   300.000
     18     0.8100     1.1900    -0.0000   -19.9986    147.749     74.000 630000.000    150.000    41.2647   -53.6565   -49.9522     0.1715    -3.0000     0.0020     0.0010    13.2392    26.4822     3.1296    14.6330    34.6316     1.0000   480.0000   300.000
     19     0.8200     1.1800    -0.0000   -20.0012    147.603     80.000 630000.000    150.000    41.2647   -52.9823   -49.8312     0.1715    -3.0000     0.0020     0.0010    13.2392    26.4812     3.1241    14.6330    34.6342     1.0000   480.0000   300.000
     20     0.8300     1.1700    -0.0000   -19.9986    147.643    104.000 630000.000    150.000    41.2647   -52.3130   -49.7180     0.1715    -3.0000     0.0020     0.0010    13.2392    26.4822     3.1188    14.6330    34.6316     1.0000   480.0000   300.000
     21     0.8401     1.1600    -0.0000   -20.0012    147.473     76.000 630000.000    150.000    41.2647   -51.6476   -49.6107     0.1715    -3.0000     0.0020     0.0010    13.2392    26.4812     3.1139    14.6330    34.6342     1.0000   480.0000   300.000
     22     0.8500     1.1500    -0.0000   -19.9986    147.458     93.000 630000.000    150.000    41.2647   -50.9872   -49.5084     0.1715    -3.0000     0.0020     0.0010    13.2392    26.4822     3.1091    14.6330    34.6316     1.0000   480.0000   300.000
     23     0.8600     1.1400    -0.0000   -20.0012    147.529    117.000 630000.000    150.000    41.2647   -50.3297   -49.4129     0.1715    -3.0000     0.0020     0.0010    13.2392    26.4812     3.1047    14.6330    34.6342     1.0000   480.0000   300.000
     24     0.8700     1.1300    -0.0000   -19.9986    147.644    169.000 630000.000    150.000    41.2647   -49.6782   -49.3223     0.1715    -3.0000     0.0020     0.0010    13.2392    26.4822     3.1004    14.6330    34.6316     1.0000   480.0000   300.000
     25     0.8801     1.1200    -0.0000   -20.0012    147.766    204.000 630000.000    150.000    41.2647   -49.0315   -49.2426     0.1715    -3.0000     0.0020     0.0010    13.2392    26.4812     3.0968    14.6330    34.6342     1.0000   480.0000   300.000
     26     0.8900     1.1100    -0.0000   -19.9986    147.523    278.000 630000.000    150.000    41.2647   -48.3907   -49.1668     0.1715    -3.0000     0.0020     0.0010    13.2392    26.4822     3.0932    14.6330    34.6316     1.0000   480.0000   300.000
     27     0.9001     1.1000    -0.0000   -20.0012    147.392    267.000 630000.000    150.000    41.2647   -47.7539   -49.0979     0.1715    -3.0000     0.0020     0.0010    13.2392    26.4812     3.0901    14.6330    34.6342     1.0000   480.0000   300.000
     28     0.9101     1.0900    -0.0000   -20.0012    147.605    257.000 630000.000    150.000    41.2647   -47.1230   -49.0349     0.1715    -3.0000     0.0020     0.0010    13.2392    26.4812     3.0872    14.6330    34.6342     1.0000   480.0000   300.000
     29     0.9201     1.0800    -0.0000   -20.0012    147.327    168.000 630000.000    150.000    41.2647   -46.4980   -48.9788     0.1715    -3.0000     0.0020     0.0010    13.2392    26.4812     3.0846    14.6330    34.6342     1.0000   480.0000   300.000
     30     0.9300     1.0700    -0.0000   -20.0012    147.622    106.000 630000.000    150.000    41.2647   -45.8789   -48.9286     0.1715    -3.0000     0.0020     0.0010    13.2392    26.4812     3.0823    14.6330    34.6342     1.0000   480.0000   300.000
     31     0.9400     1.0600    -0.0000   -20.0012    147.998     84.000 630000.000    150.000    41.2647   -45.2648   -48.8863     0.1715    -3.0000     0.0020     0.0010    13.2392    26.4812     3.0803    14.6330    34.6342     1.0000   480.0000   300.000
     32     0.9501     1.0500    -0.0000   -20.0012    147.791     43.000 630000.000    150.000    41.2647   -44.6565   -48.8499     0.1715    -3.0000     0.0020     0.0010    13.2392    26.4812     3.0786    14.6330    34.6342     1.0000   480.0000   300.000
     33     0.9600     1.0400    -0.0000   -20.0012    147.537     40.000 630000.000    150.000    41.2647   -44.0551   -48.8194     0.1715    -3.0000     0.0020     0.0010    13.2392    26.4812     3.0772    14.6330    34.6342     1.0000   480.0000   300.000
     34     0.9700     1.0300    -0.0000   -19.9986    147.488     27.000 630000.000    150.000    41.2647   -43.4596   -48.7967     0.1715    -3.0000     0.0020     0.0010    13.2392    26.4822     3.0760    14.6330    34.6316     1.0000   480.0000   300.000
     35     0.9801     1.0200    -0.0000   -20.0012    147.218     30.000 630000.000    150.000    41.2647   -42.8691   -48.7810     0.1715    -3.0000     0.0020     0.0010    13.2392    26.4812     3.0754    14.6330    34.6342     1.0000   480.0000   300.000
# Sum of Counts = 2891
# Center of Mass = 0.850269+/-0.022415
# Full Width Half-Maximum = 0.162808+/-0.007840
# 5:56:52 AM  9/29/2008   scan completed.
