# scan = 12
# date = 9/28/2008
# time = 1:26:41 PM
# proposal = IPTS-890
# experiment = FM short-range ord in AFM Tb5Ge4
# experiment_number = 266
# command = scan s1 -25 -45 -0.2
# builtin_command = scan s1 -25 -45 -0.2
# users = Rob McQueeney, Andreas Kreyssig, Alan Goldman, Wei Tian, Jerel Zarestky
# local_contact = J.L. Zarestky
# scan_title = check of point piece sample; h0l plane, 004 peak
# monochromator = PG002
# analyzer = Pg002
# sense = +-+
# collimation = 48-48-40-68
# samplename = Tb5Ge4 sc
# sampletype = crystal
# samplemosaic = 30.000000
# latticeconstants = 7.627875,14.680000,7.690000,90.000000,90.000000,90.000000
# ubmatrix = 0.131071,-0.001191,0.001327,-0.001338,0.000000,0.130032,-0.002292,-0.068109,-0.000023
# mode = 0
# plane_normal = 0.017487,0.000000,0.999847
# ubconf = UB28Sep2008_122812PM.ini
# preset_type = normal
# preset_channel = time
# preset_value = 1.000000
# def_x = s1
# def_y = detector
# col_headers =
#   Pt.         s1       time   detector    monitor        mcu         m2         s2        sgl        sgu        stl        stu         a1         a2          q          h          k          l         ei         ef          e cold_tip_[a] sample_[b]       temp
      1   -25.0000      1.000     11.000   4269.000      1.016    41.2647   -76.6206    -1.0025     0.0000     0.0020     0.0010    20.6321    41.2627     3.2948     3.9017     0.0001    -0.8882    14.6330    14.6343    -0.0013     1.0000   480.0000   300.000
      2   -25.1988      1.000      8.000   4181.000      0.995    41.2647   -76.6206    -1.0025     0.0000     0.0020     0.0010    20.6321    41.2627     3.2948     3.9048     0.0001    -0.8745    14.6330    14.6343    -0.0013     1.0000   480.0000   300.000
      3   -25.4006      1.000      4.000   4296.000      1.023    41.2647   -76.6206    -1.0025     0.0000     0.0020     0.0010    20.6321    41.2627     3.2948     3.9078     0.0001    -0.8607    14.6330    14.6343    -0.0013     1.0000   480.0000   300.000
      4   -25.6014      1.000      9.000   4243.000      1.010    41.2647   -76.6206    -1.0025     0.0000     0.0020     0.0010    20.6321    41.2627     3.2948     3.9108     0.0001    -0.8468    14.6330    14.6343    -0.0013     1.0000   480.0000   300.000
      5   -25.7992      1.000     10.000   4218.000      1.004    41.2647   -76.6206    -1.0025     0.0000     0.0020     0.0010    20.6321    41.2627     3.2948     3.9137     0.0001    -0.8332    14.6330    14.6343    -0.0013     1.0000   480.0000   300.000
      6   -26.0000      1.000     13.000   4336.000      1.032    41.2647   -76.6206    -1.0025     0.0000     0.0020     0.0010    20.6321    41.2627     3.2948     3.9165     0.0001    -0.8194    14.6330    14.6343    -0.0013     1.0000   480.0000   300.000
      7   -26.1998      1.000      4.000   4277.000      1.018    41.2647   -76.6206    -1.0025     0.0000     0.0020     0.0010    20.6321    41.2627     3.2948     3.9193     0.0001    -0.8056    14.6330    14.6343    -0.0013     1.0000   480.0000   300.000
      8   -26.3996      1.000     13.000   4240.000      1.010    41.2647   -76.6206    -1.0025     0.0000     0.0020     0.0010    20.6321    41.2627     3.2948     3.9221     0.0001    -0.7918    14.6330    14.6343    -0.0013     1.0000   480.0000   300.000
      9   -26.6014      1.000     12.000   4303.000      1.025    41.2647   -76.6206    -1.0025     0.0000     0.0020     0.0010    20.6321    41.2627     3.2948     3.9248     0.0001    -0.7779    14.6330    14.6343    -0.0013     1.0000   480.0000   300.000
     10   -26.8002      1.000      8.000   4307.000      1.025    41.2647   -76.6206    -1.0025     0.0000     0.0020     0.0010    20.6321    41.2627     3.2948     3.9275     0.0001    -0.7642    14.6330    14.6343    -0.0013     1.0000   480.0000   300.000
     11   -26.9990      1.000      9.000   4269.000      1.016    41.2647   -76.6206    -1.0025     0.0000     0.0020     0.0010    20.6321    41.2627     3.2948     3.9301     0.0001    -0.7504    14.6330    14.6343    -0.0013     1.0000   480.0000   300.000
     12   -27.1998      1.000      8.000   4274.000      1.018    41.2647   -76.6206    -1.0025     0.0000     0.0020     0.0010    20.6321    41.2627     3.2948     3.9327     0.0001    -0.7365    14.6330    14.6343    -0.0013     1.0000   480.0000   300.000
     13   -27.4006      1.000      6.000   4238.000      1.009    41.2647   -76.6206    -1.0025     0.0000     0.0020     0.0010    20.6321    41.2627     3.2948     3.9352     0.0001    -0.7226    14.6330    14.6343    -0.0013     1.0000   480.0000   300.000
     14   -27.6014      1.000      8.000   4236.000      1.009    41.2647   -76.6206    -1.0025     0.0000     0.0020     0.0010    20.6321    41.2627     3.2948     3.9377     0.0001    -0.7087    14.6330    14.6343    -0.0013     1.0000   480.0000   300.000
     15   -27.7992      1.000      8.000   4305.000      1.025    41.2647   -76.6206    -1.0025     0.0000     0.0020     0.0010    20.6321    41.2627     3.2948     3.9401     0.0001    -0.6950    14.6330    14.6343    -0.0013     1.0000   480.0000   300.000
     16   -27.9990      1.000     13.000   4240.000      1.010    41.2647   -76.6206    -1.0025     0.0000     0.0020     0.0010    20.6321    41.2627     3.2948     3.9425     0.0001    -0.6812    14.6330    14.6343    -0.0013     1.0000   480.0000   300.000
     17   -28.1988      1.000      6.000   4292.000      1.022    41.2647   -76.6206    -1.0025     0.0000     0.0020     0.0010    20.6321    41.2627     3.2948     3.9448     0.0001    -0.6673    14.6330    14.6343    -0.0013     1.0000   480.0000   300.000
     18   -28.3996      1.000      9.000   4331.000      1.031    41.2647   -76.6206    -1.0025     0.0000     0.0020     0.0010    20.6321    41.2627     3.2948     3.9471     0.0001    -0.6534    14.6330    14.6343    -0.0013     1.0000   480.0000   300.000
     19   -28.6004      1.000     13.000   4314.000      1.027    41.2647   -76.6206    -1.0025     0.0000     0.0020     0.0010    20.6321    41.2627     3.2948     3.9494     0.0001    -0.6394    14.6330    14.6343    -0.0013     1.0000   480.0000   300.000
     20   -28.8002      1.000      8.000   4248.000      1.011    41.2647   -76.6206    -1.0025     0.0000     0.0020     0.0010    20.6321    41.2627     3.2948     3.9516     0.0001    -0.6255    14.6330    14.6343    -0.0013     1.0000   480.0000   300.000
     21   -28.9990      1.000     15.000   4235.000      1.008    41.2647   -76.6206    -1.0025     0.0000     0.0020     0.0010    20.6321    41.2627     3.2948     3.9537     0.0001    -0.6117    14.6330    14.6343    -0.0013     1.0000   480.0000   300.000
     22   -29.1978      1.000     39.000   4454.000      1.060    41.2647   -76.6206    -1.0025     0.0000     0.0020     0.0010    20.6321    41.2627     3.2948     3.9558     0.0001    -0.5979    14.6330    14.6343    -0.0013     1.0000   480.0000   300.000
     23   -29.3986      1.000    264.000   4295.000      1.023    41.2647   -76.6206    -1.0025     0.0000     0.0020     0.0010    20.6321    41.2627     3.2948     3.9578     0.0001    -0.5839    14.6330    14.6343    -0.0013     1.0000   480.0000   300.000
     24   -29.6004      1.000   1545.000   4223.000      1.005    41.2647   -76.6206    -1.0025     0.0000     0.0020     0.0010    20.6321    41.2627     3.2948     3.9598     0.0001    -0.5698    14.6330    14.6343    -0.0013     1.0000   480.0000   300.000
     25   -29.8002      1.000   1892.000   4267.000      1.016    41.2647   -76.6206    -1.0025     0.0000     0.0020     0.0010    20.6321    41.2627     3.2948     3.9618     0.0001    -0.5559    14.6330    14.6343    -0.0013     1.0000   480.0000   300.000
     26   -29.9990      1.000    441.000   4167.000      0.992    41.2647   -76.6206    -1.0025     0.0000     0.0020     0.0010    20.6321    41.2627     3.2948     3.9637     0.0001    -0.5420    14.6330    14.6343    -0.0013     1.0000   480.0000   300.000
     27   -30.1988      1.000     44.000   4195.000      0.999    41.2647   -76.6206    -1.0025     0.0000     0.0020     0.0010    20.6321    41.2627     3.2948     3.9655     0.0001    -0.5281    14.6330    14.6343    -0.0013     1.0000   480.0000   300.000
     28   -30.3996      1.000     43.000   4219.000      1.005    41.2647   -76.6206    -1.0025     0.0000     0.0020     0.0010    20.6321    41.2627     3.2948     3.9673     0.0001    -0.5141    14.6330    14.6343    -0.0013     1.0000   480.0000   300.000
     29   -30.6004      1.000     61.000   4168.000      0.992    41.2647   -76.6206    -1.0025     0.0000     0.0020     0.0010    20.6321    41.2627     3.2948     3.9691     0.0001    -0.5001    14.6330    14.6343    -0.0013     1.0000   480.0000   300.000
     30   -30.8002      1.000     69.000   4296.000      1.023    41.2647   -76.6206    -1.0025     0.0000     0.0020     0.0010    20.6321    41.2627     3.2948     3.9708     0.0001    -0.4861    14.6330    14.6343    -0.0013     1.0000   480.0000   300.000
     31   -30.9980      1.000    334.000   4175.000      0.994    41.2647   -76.6206    -1.0025     0.0000     0.0020     0.0010    20.6321    41.2627     3.2948     3.9724     0.0001    -0.4723    14.6330    14.6343    -0.0013     1.0000   480.0000   300.000
     32   -31.1988      1.000    946.000   4345.000      1.035    41.2647   -76.6206    -1.0025     0.0000     0.0020     0.0010    20.6321    41.2627     3.2948     3.9741     0.0001    -0.4583    14.6330    14.6343    -0.0013     1.0000   480.0000   300.000
     33   -31.3996      1.000    615.000   4217.000      1.004    41.2647   -76.6206    -1.0025     0.0000     0.0020     0.0010    20.6321    41.2627     3.2948     3.9756     0.0001    -0.4442    14.6330    14.6343    -0.0013     1.0000   480.0000   300.000
     34   -31.6004      1.000    123.000   4342.000      1.034    41.2647   -76.6206    -1.0025     0.0000     0.0020     0.0010    20.6321    41.2627     3.2948     3.9772     0.0001    -0.4302    14.6330    14.6343    -0.0013     1.0000   480.0000   300.000
     35   -31.8002      1.000     54.000   4321.000      1.029    41.2647   -76.6206    -1.0025     0.0000     0.0020     0.0010    20.6321    41.2627     3.2948     3.9786     0.0001    -0.4162    14.6330    14.6343    -0.0013     1.0000   480.0000   300.000
     36   -31.9990      1.000     39.000   4250.000      1.012    41.2647   -76.6206    -1.0025     0.0000     0.0020     0.0010    20.6321    41.2627     3.2948     3.9800     0.0001    -0.4023    14.6330    14.6343    -0.0013     1.0000   480.0000   300.000
     37   -32.1988      1.000     21.000   4296.000      1.023    41.2647   -76.6206    -1.0025     0.0000     0.0020     0.0010    20.6321    41.2627     3.2948     3.9814     0.0001    -0.3883    14.6330    14.6343    -0.0013     1.0000   480.0000   300.000
     38   -32.4006      1.000     30.000   4278.000      1.019    41.2647   -76.6206    -1.0025     0.0000     0.0020     0.0010    20.6321    41.2627     3.2948     3.9827     0.0001    -0.3741    14.6330    14.6343    -0.0013     1.0000   480.0000   300.000
     39   -32.6004      1.000     24.000   4254.000      1.013    41.2647   -76.6206    -1.0025     0.0000     0.0020     0.0010    20.6321    41.2627     3.2948     3.9840     0.0001    -0.3601    14.6330    14.6343    -0.0013     1.0000   480.0000   300.000
     40   -32.8002      1.000     14.000   4230.000      1.007    41.2647   -76.6206    -1.0025     0.0000     0.0020     0.0010    20.6321    41.2627     3.2948     3.9852     0.0001    -0.3461    14.6330    14.6343    -0.0013     1.0000   480.0000   300.000
     41   -32.9990      1.000     11.000   4301.000      1.024    41.2647   -76.6206    -1.0025     0.0000     0.0020     0.0010    20.6321    41.2627     3.2948     3.9864     0.0001    -0.3322    14.6330    14.6343    -0.0013     1.0000   480.0000   300.000
     42   -33.1998      1.000      9.000   4306.000      1.025    41.2647   -76.6206    -1.0025     0.0000     0.0020     0.0010    20.6321    41.2627     3.2948     3.9875     0.0001    -0.3181    14.6330    14.6343    -0.0013     1.0000   480.0000   300.000
     43   -33.4006      1.000      9.000   4193.000      0.998    41.2647   -76.6206    -1.0025     0.0000     0.0020     0.0010    20.6321    41.2627     3.2948     3.9886     0.0001    -0.3040    14.6330    14.6343    -0.0013     1.0000   480.0000   300.000
     44   -33.5994      1.000      8.000   4295.000      1.023    41.2647   -76.6206    -1.0025     0.0000     0.0020     0.0010    20.6321    41.2627     3.2948     3.9896     0.0001    -0.2900    14.6330    14.6343    -0.0013     1.0000   480.0000   300.000
     45   -33.7992      1.000     10.000   4165.000      0.992    41.2647   -76.6206    -1.0025     0.0000     0.0020     0.0010    20.6321    41.2627     3.2948     3.9906     0.0001    -0.2760    14.6330    14.6343    -0.0013     1.0000   480.0000   300.000
     46   -33.9990      1.000     10.000   4261.000      1.015    41.2647   -76.6206    -1.0025     0.0000     0.0020     0.0010    20.6321    41.2627     3.2948     3.9915     0.0001    -0.2620    14.6330    14.6343    -0.0013     1.0000   480.0000   300.000
     47   -34.1988      1.000      8.000   4226.000      1.006    41.2647   -76.6206    -1.0025     0.0000     0.0020     0.0010    20.6321    41.2627     3.2948     3.9924     0.0001    -0.2479    14.6330    14.6343    -0.0013     1.0000   480.0000   300.000
     48   -34.4006      1.000     16.000   4312.000      1.027    41.2647   -76.6206    -1.0025     0.0000     0.0020     0.0010    20.6321    41.2627     3.2948     3.9933     0.0001    -0.2338    14.6330    14.6343    -0.0013     1.0000   480.0000   300.000
     49   -34.6014      1.000      9.000   4377.000      1.042    41.2647   -76.6206    -1.0025     0.0000     0.0020     0.0010    20.6321    41.2627     3.2948     3.9940     0.0001    -0.2197    14.6330    14.6343    -0.0013     1.0000   480.0000   300.000
     50   -34.7982      1.000      7.000   4338.000      1.033    41.2647   -76.6206    -1.0025     0.0000     0.0020     0.0010    20.6321    41.2627     3.2948     3.9948     0.0001    -0.2058    14.6330    14.6343    -0.0013     1.0000   480.0000   300.000
     51   -35.0000      1.000     10.000   4297.000      1.023    41.2647   -76.6206    -1.0025     0.0000     0.0020     0.0010    20.6321    41.2627     3.2948     3.9955     0.0001    -0.1916    14.6330    14.6343    -0.0013     1.0000   480.0000   300.000
     52   -35.1978      1.000      7.000   4190.000      0.998    41.2647   -76.6206    -1.0025     0.0000     0.0020     0.0010    20.6321    41.2627     3.2948     3.9961     0.0001    -0.1777    14.6330    14.6343    -0.0013     1.0000   480.0000   300.000
     53   -35.3996      1.000     12.000   4212.000      1.003    41.2647   -76.6206    -1.0025     0.0000     0.0020     0.0010    20.6321    41.2627     3.2948     3.9967     0.0001    -0.1635    14.6330    14.6343    -0.0013     1.0000   480.0000   300.000
     54   -35.6014      1.000      9.000   4295.000      1.023    41.2647   -76.6206    -1.0025     0.0000     0.0020     0.0010    20.6321    41.2627     3.2948     3.9972     0.0001    -0.1494    14.6330    14.6343    -0.0013     1.0000   480.0000   300.000
     55   -35.7992      1.000      8.000   4332.000      1.031    41.2647   -76.6206    -1.0025     0.0000     0.0020     0.0010    20.6321    41.2627     3.2948     3.9977     0.0001    -0.1354    14.6330    14.6343    -0.0013     1.0000   480.0000   300.000
     56   -36.0010      1.000      9.000   4293.000      1.022    41.2647   -76.6206    -1.0025     0.0000     0.0020     0.0010    20.6321    41.2627     3.2948     3.9982     0.0001    -0.1212    14.6330    14.6343    -0.0013     1.0000   480.0000   300.000
     57   -36.1998      1.000     15.000   4335.000      1.032    41.2647   -76.6206    -1.0025     0.0000     0.0020     0.0010    20.6321    41.2627     3.2948     3.9986     0.0001    -0.1073    14.6330    14.6343    -0.0013     1.0000   480.0000   300.000
     58   -36.3996      1.000     21.000   4269.000      1.016    41.2647   -76.6206    -1.0025     0.0000     0.0020     0.0010    20.6321    41.2627     3.2948     3.9989     0.0001    -0.0932    14.6330    14.6343    -0.0013     1.0000   480.0000   300.000
     59   -36.5994      1.000     32.000   4208.000      1.002    41.2647   -76.6206    -1.0025     0.0000     0.0020     0.0010    20.6321    41.2627     3.2948     3.9992     0.0001    -0.0791    14.6330    14.6343    -0.0013     1.0000   480.0000   300.000
     60   -36.7992      1.000    131.000   4162.000      0.991    41.2647   -76.6206    -1.0025     0.0000     0.0020     0.0010    20.6321    41.2627     3.2948     3.9995     0.0001    -0.0651    14.6330    14.6343    -0.0013     1.0000   480.0000   300.000
     61   -36.9990      1.000   1155.000   4245.000      1.011    41.2647   -76.6206    -1.0025     0.0000     0.0020     0.0010    20.6321    41.2627     3.2948     3.9997     0.0001    -0.0510    14.6330    14.6343    -0.0013     1.0000   480.0000   300.000
     62   -37.1998      1.000   2232.000   4260.000      1.014    41.2647   -76.6206    -1.0025     0.0000     0.0020     0.0010    20.6321    41.2627     3.2948     3.9998     0.0001    -0.0369    14.6330    14.6343    -0.0013     1.0000   480.0000   300.000
     63   -37.4006      1.000    452.000   4223.000      1.005    41.2647   -76.6206    -1.0025     0.0000     0.0020     0.0010    20.6321    41.2627     3.2948     3.9999     0.0001    -0.0228    14.6330    14.6343    -0.0013     1.0000   480.0000   300.000
     64   -37.6014      1.000     49.000   4257.000      1.014    41.2647   -76.6206    -1.0025     0.0000     0.0020     0.0010    20.6321    41.2627     3.2948     4.0000     0.0001    -0.0086    14.6330    14.6343    -0.0013     1.0000   480.0000   300.000
     65   -37.8002      1.000     22.000   4346.000      1.035    41.2647   -76.6206    -1.0025     0.0000     0.0020     0.0010    20.6321    41.2627     3.2948     4.0000     0.0001     0.0054    14.6330    14.6343    -0.0013     1.0000   480.0000   300.000
     66   -37.9990      1.000     17.000   4179.000      0.995    41.2647   -76.6206    -1.0025     0.0000     0.0020     0.0010    20.6321    41.2627     3.2948     3.9999     0.0001     0.0194    14.6330    14.6343    -0.0013     1.0000   480.0000   300.000
     67   -38.1988      1.000     36.000   4184.000      0.996    41.2647   -76.6206    -1.0025     0.0000     0.0020     0.0010    20.6321    41.2627     3.2948     3.9998     0.0001     0.0334    14.6330    14.6343    -0.0013     1.0000   480.0000   300.000
     68   -38.3996      1.000    169.000   4293.000      1.022    41.2647   -76.6206    -1.0025     0.0000     0.0020     0.0010    20.6321    41.2627     3.2948     3.9997     0.0001     0.0476    14.6330    14.6343    -0.0013     1.0000   480.0000   300.000
     69   -38.6004      1.000    469.000   4232.000      1.008    41.2647   -76.6206    -1.0025     0.0000     0.0020     0.0010    20.6321    41.2627     3.2948     3.9995     0.0001     0.0617    14.6330    14.6343    -0.0013     1.0000   480.0000   300.000
     70   -38.8002      1.000    285.000   4369.000      1.040    41.2647   -76.6206    -1.0025     0.0000     0.0020     0.0010    20.6321    41.2627     3.2948     3.9993     0.0001     0.0757    14.6330    14.6343    -0.0013     1.0000   480.0000   300.000
     71   -39.0000      1.000     48.000   4175.000      0.994    41.2647   -76.6206    -1.0025     0.0000     0.0020     0.0010    20.6321    41.2627     3.2948     3.9990     0.0001     0.0898    14.6330    14.6343    -0.0013     1.0000   480.0000   300.000
