# scan = 13
# date = 9/28/2008
# time = 1:31:58 PM
# proposal = IPTS-890
# experiment = FM short-range ord in AFM Tb5Ge4
# experiment_number = 266
# command = scan s1 -25 -45 -0.2
# builtin_command = scan s1 -25 -45 -0.2
# users = Rob McQueeney, Andreas Kreyssig, Alan Goldman, Wei Tian, Jerel Zarestky
# local_contact = J.L. Zarestky
# scan_title = check of point piece sample; h0l plane, 004 peak
# monochromator = PG002
# analyzer = Pg002
# sense = +-+
# collimation = 48-48-40-68
# samplename = Tb5Ge4 sc
# sampletype = crystal
# samplemosaic = 30.000000
# latticeconstants = 7.627875,14.680000,7.690000,90.000000,90.000000,90.000000
# ubmatrix = 0.131071,-0.001191,0.001327,-0.001338,0.000000,0.130032,-0.002292,-0.068109,-0.000023
# mode = 0
# plane_normal = 0.017487,0.000000,0.999847
# ubconf = UB28Sep2008_122812PM.ini
# preset_type = normal
# preset_channel = time
# preset_value = 1.000000
# def_x = s1
# def_y = detector
# col_headers =
#   Pt.         s1       time   detector    monitor        mcu         m2         s2        sgl        sgu        stl        stu         a1         a2          q          h          k          l         ei         ef          e cold_tip_[a] sample_[b]       temp
      1   -25.0000      1.000     18.000   4324.000      1.030    41.2647   -76.6206    -1.0025     0.0000     0.0020     0.0010    20.6321    41.2627     3.2948     3.9017     0.0001    -0.8882    14.6330    14.6343    -0.0013     1.0000   480.0000   300.000
      2   -25.1988      1.000     37.000   4211.000      1.003    41.2647   -76.6206    -1.0025     0.0000     0.0020     0.0010    20.6321    41.2627     3.2948     3.9048     0.0001    -0.8745    14.6330    14.6343    -0.0013     1.0000   480.0000   300.000
      3   -25.3996      1.000     60.000   4292.000      1.022    41.2647   -76.6206    -1.0025     0.0000     0.0020     0.0010    20.6321    41.2627     3.2948     3.9078     0.0001    -0.8607    14.6330    14.6343    -0.0013     1.0000   480.0000   300.000
      4   -25.6014      1.000     61.000   4236.000      1.009    41.2647   -76.6206    -1.0025     0.0000     0.0020     0.0010    20.6321    41.2627     3.2948     3.9108     0.0001    -0.8468    14.6330    14.6343    -0.0013     1.0000   480.0000   300.000
      5   -25.7992      1.000    240.000   4121.000      0.981    41.2647   -76.6206    -1.0025     0.0000     0.0020     0.0010    20.6321    41.2627     3.2948     3.9137     0.0001    -0.8332    14.6330    14.6343    -0.0013     1.0000   480.0000   300.000
      6   -26.0010      1.000    827.000   4161.000      0.991    41.2647   -76.6206    -1.0025     0.0000     0.0020     0.0010    20.6321    41.2627     3.2948     3.9165     0.0001    -0.8193    14.6330    14.6343    -0.0013     1.0000   480.0000   300.000
      7   -26.1998      1.000    597.000   4222.000      1.005    41.2647   -76.6206    -1.0025     0.0000     0.0020     0.0010    20.6321    41.2627     3.2948     3.9193     0.0001    -0.8056    14.6330    14.6343    -0.0013     1.0000   480.0000   300.000
      8   -26.4006      1.000    136.000   4195.000      0.999    41.2647   -76.6206    -1.0025     0.0000     0.0020     0.0010    20.6321    41.2627     3.2948     3.9221     0.0001    -0.7918    14.6330    14.6343    -0.0013     1.0000   480.0000   300.000
      9   -26.6004      1.000     44.000   4348.000      1.035    41.2647   -76.6206    -1.0025     0.0000     0.0020     0.0010    20.6321    41.2627     3.2948     3.9248     0.0001    -0.7780    14.6330    14.6343    -0.0013     1.0000   480.0000   300.000
     10   -26.7992      1.000     49.000   4218.000      1.004    41.2647   -76.6206    -1.0025     0.0000     0.0020     0.0010    20.6321    41.2627     3.2948     3.9275     0.0001    -0.7642    14.6330    14.6343    -0.0013     1.0000   480.0000   300.000
     11   -26.9990      1.000     30.000   4354.000      1.037    41.2647   -76.6206    -1.0025     0.0000     0.0020     0.0010    20.6321    41.2627     3.2948     3.9301     0.0001    -0.7504    14.6330    14.6343    -0.0013     1.0000   480.0000   300.000
     12   -27.1998      1.000     17.000   4225.000      1.006    41.2647   -76.6206    -1.0025     0.0000     0.0020     0.0010    20.6321    41.2627     3.2948     3.9327     0.0001    -0.7365    14.6330    14.6343    -0.0013     1.0000   480.0000   300.000
     13   -27.4006      1.000     20.000   4222.000      1.005    41.2647   -76.6206    -1.0025     0.0000     0.0020     0.0010    20.6321    41.2627     3.2948     3.9352     0.0001    -0.7226    14.6330    14.6343    -0.0013     1.0000   480.0000   300.000
     14   -27.6014      1.000     13.000   4414.000      1.051    41.2647   -76.6206    -1.0025     0.0000     0.0020     0.0010    20.6321    41.2627     3.2948     3.9377     0.0001    -0.7087    14.6330    14.6343    -0.0013     1.0000   480.0000   300.000
     15   -27.8002      1.000     20.000   4409.000      1.050    41.2647   -76.6206    -1.0025     0.0000     0.0020     0.0010    20.6321    41.2627     3.2948     3.9401     0.0001    -0.6950    14.6330    14.6343    -0.0013     1.0000   480.0000   300.000
     16   -27.9990      1.000     15.000   4283.000      1.020    41.2647   -76.6206    -1.0025     0.0000     0.0020     0.0010    20.6321    41.2627     3.2948     3.9425     0.0001    -0.6812    14.6330    14.6343    -0.0013     1.0000   480.0000   300.000
     17   -28.1998      1.000     14.000   4153.000      0.989    41.2647   -76.6206    -1.0025     0.0000     0.0020     0.0010    20.6321    41.2627     3.2948     3.9448     0.0001    -0.6672    14.6330    14.6343    -0.0013     1.0000   480.0000   300.000
     18   -28.4006      1.000     10.000   4235.000      1.008    41.2647   -76.6206    -1.0025     0.0000     0.0020     0.0010    20.6321    41.2627     3.2948     3.9471     0.0001    -0.6533    14.6330    14.6343    -0.0013     1.0000   480.0000   300.000
     19   -28.6004      1.000     10.000   4242.000      1.010    41.2647   -76.6206    -1.0025     0.0000     0.0020     0.0010    20.6321    41.2627     3.2948     3.9494     0.0001    -0.6394    14.6330    14.6343    -0.0013     1.0000   480.0000   300.000
     20   -28.8002      1.000     15.000   4368.000      1.040    41.2647   -76.6206    -1.0025     0.0000     0.0020     0.0010    20.6321    41.2627     3.2948     3.9516     0.0001    -0.6255    14.6330    14.6343    -0.0013     1.0000   480.0000   300.000
     21   -28.9990      1.000     21.000   4324.000      1.030    41.2647   -76.6206    -1.0025     0.0000     0.0020     0.0010    20.6321    41.2627     3.2948     3.9537     0.0001    -0.6117    14.6330    14.6343    -0.0013     1.0000   480.0000   300.000
     22   -29.1978      1.000     38.000   4243.000      1.010    41.2647   -76.6206    -1.0025     0.0000     0.0020     0.0010    20.6321    41.2627     3.2948     3.9558     0.0001    -0.5979    14.6330    14.6343    -0.0013     1.0000   480.0000   300.000
     23   -29.3996      1.000    257.000   4215.000      1.004    41.2647   -76.6206    -1.0025     0.0000     0.0020     0.0010    20.6321    41.2627     3.2948     3.9578     0.0001    -0.5838    14.6330    14.6343    -0.0013     1.0000   480.0000   300.000
     24   -29.6004      1.000   1509.000   4235.000      1.008    41.2647   -76.6206    -1.0025     0.0000     0.0020     0.0010    20.6321    41.2627     3.2948     3.9598     0.0001    -0.5698    14.6330    14.6343    -0.0013     1.0000   480.0000   300.000
     25   -29.8002      1.000   1827.000   4259.000      1.014    41.2647   -76.6206    -1.0025     0.0000     0.0020     0.0010    20.6321    41.2627     3.2948     3.9618     0.0001    -0.5559    14.6330    14.6343    -0.0013     1.0000   480.0000   300.000
     26   -29.9990      1.000    415.000   4259.000      1.014    41.2647   -76.6206    -1.0025     0.0000     0.0020     0.0010    20.6321    41.2627     3.2948     3.9637     0.0001    -0.5420    14.6330    14.6343    -0.0013     1.0000   480.0000   300.000
     27   -30.1998      1.000     28.000   4267.000      1.016    41.2647   -76.6206    -1.0025     0.0000     0.0020     0.0010    20.6321    41.2627     3.2948     3.9655     0.0001    -0.5280    14.6330    14.6343    -0.0013     1.0000   480.0000   300.000
     28   -30.3996      1.000      9.000   4247.000      1.011    41.2647   -76.6206    -1.0025     0.0000     0.0020     0.0010    20.6321    41.2627     3.2948     3.9673     0.0001    -0.5141    14.6330    14.6343    -0.0013     1.0000   480.0000   300.000
     29   -30.6004      1.000      9.000   4233.000      1.008    41.2647   -76.6206    -1.0025     0.0000     0.0020     0.0010    20.6321    41.2627     3.2948     3.9691     0.0001    -0.5001    14.6330    14.6343    -0.0013     1.0000   480.0000   300.000
     30   -30.8002      1.000      6.000   4232.000      1.008    41.2647   -76.6206    -1.0025     0.0000     0.0020     0.0010    20.6321    41.2627     3.2948     3.9708     0.0001    -0.4861    14.6330    14.6343    -0.0013     1.0000   480.0000   300.000
     31   -30.9980      1.000     17.000   4380.000      1.043    41.2647   -76.6206    -1.0025     0.0000     0.0020     0.0010    20.6321    41.2627     3.2948     3.9724     0.0001    -0.4723    14.6330    14.6343    -0.0013     1.0000   480.0000   300.000
     32   -31.1988      1.000     15.000   4224.000      1.006    41.2647   -76.6206    -1.0025     0.0000     0.0020     0.0010    20.6321    41.2627     3.2948     3.9741     0.0001    -0.4583    14.6330    14.6343    -0.0013     1.0000   480.0000   300.000
     33   -31.4006      1.000     13.000   4098.000      0.976    41.2647   -76.6206    -1.0025     0.0000     0.0020     0.0010    20.6321    41.2627     3.2948     3.9756     0.0001    -0.4441    14.6330    14.6343    -0.0013     1.0000   480.0000   300.000
     34   -31.6004      1.000      7.000   4337.000      1.033    41.2647   -76.6206    -1.0025     0.0000     0.0020     0.0010    20.6321    41.2627     3.2948     3.9772     0.0001    -0.4302    14.6330    14.6343    -0.0013     1.0000   480.0000   300.000
     35   -31.8002      1.000     11.000   4304.000      1.025    41.2647   -76.6206    -1.0025     0.0000     0.0020     0.0010    20.6321    41.2627     3.2948     3.9786     0.0001    -0.4162    14.6330    14.6343    -0.0013     1.0000   480.0000   300.000
     36   -31.9990      1.000     14.000   4340.000      1.033    41.2647   -76.6206    -1.0025     0.0000     0.0020     0.0010    20.6321    41.2627     3.2948     3.9800     0.0001    -0.4023    14.6330    14.6343    -0.0013     1.0000   480.0000   300.000
     37   -32.1978      1.000     16.000   4361.000      1.038    41.2647   -76.6206    -1.0025     0.0000     0.0020     0.0010    20.6321    41.2627     3.2948     3.9814     0.0001    -0.3883    14.6330    14.6343    -0.0013     1.0000   480.0000   300.000
     38   -32.3996      1.000     13.000   4183.000      0.996    41.2647   -76.6206    -1.0025     0.0000     0.0020     0.0010    20.6321    41.2627     3.2948     3.9827     0.0001    -0.3742    14.6330    14.6343    -0.0013     1.0000   480.0000   300.000
     39   -32.6014      1.000     22.000   4263.000      1.015    41.2647   -76.6206    -1.0025     0.0000     0.0020     0.0010    20.6321    41.2627     3.2948     3.9840     0.0001    -0.3601    14.6330    14.6343    -0.0013     1.0000   480.0000   300.000
     40   -32.8002      1.000     30.000   4324.000      1.030    41.2647   -76.6206    -1.0025     0.0000     0.0020     0.0010    20.6321    41.2627     3.2948     3.9852     0.0001    -0.3461    14.6330    14.6343    -0.0013     1.0000   480.0000   300.000
     41   -32.9990      1.000     38.000   4318.000      1.028    41.2647   -76.6206    -1.0025     0.0000     0.0020     0.0010    20.6321    41.2627     3.2948     3.9864     0.0001    -0.3322    14.6330    14.6343    -0.0013     1.0000   480.0000   300.000
     42   -33.1988      1.000    130.000   4190.000      0.998    41.2647   -76.6206    -1.0025     0.0000     0.0020     0.0010    20.6321    41.2627     3.2948     3.9875     0.0001    -0.3182    14.6330    14.6343    -0.0013     1.0000   480.0000   300.000
     43   -33.4006      1.000    409.000   4248.000      1.011    41.2647   -76.6206    -1.0025     0.0000     0.0020     0.0010    20.6321    41.2627     3.2948     3.9886     0.0001    -0.3040    14.6330    14.6343    -0.0013     1.0000   480.0000   300.000
     44   -33.6004      1.000    266.000   4278.000      1.019    41.2647   -76.6206    -1.0025     0.0000     0.0020     0.0010    20.6321    41.2627     3.2948     3.9896     0.0001    -0.2900    14.6330    14.6343    -0.0013     1.0000   480.0000   300.000
     45   -33.8002      1.000     72.000   4405.000      1.049    41.2647   -76.6206    -1.0025     0.0000     0.0020     0.0010    20.6321    41.2627     3.2948     3.9906     0.0001    -0.2759    14.6330    14.6343    -0.0013     1.0000   480.0000   300.000
     46   -33.9990      1.000     23.000   4167.000      0.992    41.2647   -76.6206    -1.0025     0.0000     0.0020     0.0010    20.6321    41.2627     3.2948     3.9915     0.0001    -0.2620    14.6330    14.6343    -0.0013     1.0000   480.0000   300.000
     47   -34.1998      1.000     19.000   4201.000      1.000    41.2647   -76.6206    -1.0025     0.0000     0.0020     0.0010    20.6321    41.2627     3.2948     3.9924     0.0001    -0.2479    14.6330    14.6343    -0.0013     1.0000   480.0000   300.000
     48   -34.3996      1.000     24.000   4328.000      1.030    41.2647   -76.6206    -1.0025     0.0000     0.0020     0.0010    20.6321    41.2627     3.2948     3.9932     0.0001    -0.2338    14.6330    14.6343    -0.0013     1.0000   480.0000   300.000
     49   -34.6014      1.000     11.000   4309.000      1.026    41.2647   -76.6206    -1.0025     0.0000     0.0020     0.0010    20.6321    41.2627     3.2948     3.9940     0.0001    -0.2197    14.6330    14.6343    -0.0013     1.0000   480.0000   300.000
     50   -34.7992      1.000     21.000   4261.000      1.015    41.2647   -76.6206    -1.0025     0.0000     0.0020     0.0010    20.6321    41.2627     3.2948     3.9948     0.0001    -0.2058    14.6330    14.6343    -0.0013     1.0000   480.0000   300.000
     51   -35.0000      1.000     10.000   4198.000      1.000    41.2647   -76.6206    -1.0025     0.0000     0.0020     0.0010    20.6321    41.2627     3.2948     3.9955     0.0001    -0.1916    14.6330    14.6343    -0.0013     1.0000   480.0000   300.000
     52   -35.1978      1.000     15.000   4202.000      1.000    41.2647   -76.6206    -1.0025     0.0000     0.0020     0.0010    20.6321    41.2627     3.2948     3.9961     0.0001    -0.1777    14.6330    14.6343    -0.0013     1.0000   480.0000   300.000
     53   -35.4006      1.000      9.000   4224.000      1.006    41.2647   -76.6206    -1.0025     0.0000     0.0020     0.0010    20.6321    41.2627     3.2948     3.9967     0.0001    -0.1635    14.6330    14.6343    -0.0013     1.0000   480.0000   300.000
     54   -35.6014      1.000      7.000   4304.000      1.025    41.2647   -76.6206    -1.0025     0.0000     0.0020     0.0010    20.6321    41.2627     3.2948     3.9972     0.0001    -0.1494    14.6330    14.6343    -0.0013     1.0000   480.0000   300.000
     55   -35.8002      1.000      7.000   4278.000      1.019    41.2647   -76.6206    -1.0025     0.0000     0.0020     0.0010    20.6321    41.2627     3.2948     3.9977     0.0001    -0.1354    14.6330    14.6343    -0.0013     1.0000   480.0000   300.000
     56   -36.0000      1.000     10.000   4311.000      1.026    41.2647   -76.6206    -1.0025     0.0000     0.0020     0.0010    20.6321    41.2627     3.2948     3.9982     0.0001    -0.1213    14.6330    14.6343    -0.0013     1.0000   480.0000   300.000
     57   -36.2008      1.000      4.000   4352.000      1.036    41.2647   -76.6206    -1.0025     0.0000     0.0020     0.0010    20.6321    41.2627     3.2948     3.9986     0.0001    -0.1072    14.6330    14.6343    -0.0013     1.0000   480.0000   300.000
     58   -36.4006      1.000     19.000   4335.000      1.032    41.2647   -76.6206    -1.0025     0.0000     0.0020     0.0010    20.6321    41.2627     3.2948     3.9989     0.0001    -0.0931    14.6330    14.6343    -0.0013     1.0000   480.0000   300.000
     59   -36.6004      1.000     29.000   4214.000      1.003    41.2647   -76.6206    -1.0025     0.0000     0.0020     0.0010    20.6321    41.2627     3.2948     3.9992     0.0001    -0.0791    14.6330    14.6343    -0.0013     1.0000   480.0000   300.000
     60   -36.7992      1.000    140.000   4228.000      1.007    41.2647   -76.6206    -1.0025     0.0000     0.0020     0.0010    20.6321    41.2627     3.2948     3.9995     0.0001    -0.0651    14.6330    14.6343    -0.0013     1.0000   480.0000   300.000
     61   -36.9990      1.000   1165.000   4235.000      1.008    41.2647   -76.6206    -1.0025     0.0000     0.0020     0.0010    20.6321    41.2627     3.2948     3.9997     0.0001    -0.0510    14.6330    14.6343    -0.0013     1.0000   480.0000   300.000
     62   -37.2008      1.000   2220.000   4379.000      1.043    41.2647   -76.6206    -1.0025     0.0000     0.0020     0.0010    20.6321    41.2627     3.2948     3.9998     0.0001    -0.0368    14.6330    14.6343    -0.0013     1.0000   480.0000   300.000
     63   -37.4006      1.000    497.000   4315.000      1.027    41.2647   -76.6206    -1.0025     0.0000     0.0020     0.0010    20.6321    41.2627     3.2948     3.9999     0.0001    -0.0228    14.6330    14.6343    -0.0013     1.0000   480.0000   300.000
     64   -37.6014      1.000     28.000   4257.000      1.014    41.2647   -76.6206    -1.0025     0.0000     0.0020     0.0010    20.6321    41.2627     3.2948     4.0000     0.0001    -0.0086    14.6330    14.6343    -0.0013     1.0000   480.0000   300.000
     65   -37.8002      1.000      7.000   4319.000      1.028    41.2647   -76.6206    -1.0025     0.0000     0.0020     0.0010    20.6321    41.2627     3.2948     4.0000     0.0001     0.0054    14.6330    14.6343    -0.0013     1.0000   480.0000   300.000
     66   -38.0000      1.000      5.000   4236.000      1.009    41.2647   -76.6206    -1.0025     0.0000     0.0020     0.0010    20.6321    41.2627     3.2948     3.9999     0.0001     0.0194    14.6330    14.6343    -0.0013     1.0000   480.0000   300.000
     67   -38.1988      1.000     18.000   4264.000      1.015    41.2647   -76.6206    -1.0025     0.0000     0.0020     0.0010    20.6321    41.2627     3.2948     3.9998     0.0001     0.0334    14.6330    14.6343    -0.0013     1.0000   480.0000   300.000
     68   -38.4006      1.000     13.000   4247.000      1.011    41.2647   -76.6206    -1.0025     0.0000     0.0020     0.0010    20.6321    41.2627     3.2948     3.9997     0.0001     0.0476    14.6330    14.6343    -0.0013     1.0000   480.0000   300.000
     69   -38.6004      1.000      5.000   4337.000      1.033    41.2647   -76.6206    -1.0025     0.0000     0.0020     0.0010    20.6321    41.2627     3.2948     3.9995     0.0001     0.0617    14.6330    14.6343    -0.0013     1.0000   480.0000   300.000
     70   -38.8002      1.000      9.000   4233.000      1.008    41.2647   -76.6206    -1.0025     0.0000     0.0020     0.0010    20.6321    41.2627     3.2948     3.9993     0.0001     0.0757    14.6330    14.6343    -0.0013     1.0000   480.0000   300.000
     71   -38.9990      1.000     10.000   4281.000      1.019    41.2647   -76.6206    -1.0025     0.0000     0.0020     0.0010    20.6321    41.2627     3.2948     3.9990     0.0001     0.0897    14.6330    14.6343    -0.0013     1.0000   480.0000   300.000
