# scan = 541
# date = 4/12/2024
# time = 2:50:33 AM
# proposal = 33477
# experiment = Commissioning and enabling the 4-circle capability at VERITAS
# experiment_number = 1012
# command = scanrel s1 1.5 -1.5 0.15
# builtin_command = scan s1 @(s1)+1.5 @(s1)+-1.5 0.150000
# users = Feng Ye, Mike McDowell, Adam Aczel, Bing Li, Wei Tian, Bing Li
# local_contact = Wei Tian, Adam Aczel
# scan_title = Nuclear_@(tsample.position) (1.00 -3.00 0.00 )
# monochromator = PG002
# analyzer = Pg002
# sense = +-+
# collimation = 40-40-40-80
# samplename = La2Ni7, Al-doped CuFeO2
# sampletype = crystal
# samplemosaic = 30.000000
# latticeconstants = 4.830000,5.750000,5.000000,90.000000,91.300000,90.000000
# ubmatrix = -0.000000,0.173884,-0.000000,-0.000000,0.003195,-0.000000,-0.000000,0.000123,-0.000000
# mode = 0
# plane_normal = -0.000714,0.000226,1.000000
# ubconf = UB11Apr2024_40156PM.ini
# preset_type = normal 
# preset_channel = mcu
# preset_value = 20.000000
# def_x = s1
# def_y = detector
# col_headers = 
#   Pt.         s1       time   detector    monitor        mcu         m2        chi        phi         s2        sgl        sgu   slitb_bt   slitb_lf   slitb_rt   slitb_tp   slita_bt   slita_lf   slita_rt   slita_tp         a1         a2          q          h          k          l         ei         ef          e
      1   -40.4104     20.142     72.000 196001.000     20.000    41.5367    -6.1902   -56.9900   -83.8231     0.0409     0.0130    10.0000     7.0000     7.0000    10.0000    14.0000     7.0000     7.0000    14.0000    20.7603    -0.0021     3.5280 261728060861796784000000000000000.0000 49838471160230352.0000 -3759074268114466830000000000000.0000    14.4503    14.4503     0.000
      2   -40.5605     20.150     80.000 196001.000     20.000    41.5367    -6.1902   -56.9900   -83.8231     0.0409     0.0130    10.0000     7.0000     7.0000    10.0000    14.0000     7.0000     7.0000    14.0000    20.7602    -0.0021     3.5280 246361662785233245000000000000000.0000 46912389085370880.0000 -3538374082536413250000000000000.0000    14.4503    14.4503     0.000
      3   -40.7108     20.124     90.000 196001.000     20.000    41.5367    -6.1902   -56.9900   -83.8231     0.0409     0.0130    10.0000     7.0000     7.0000    10.0000    14.0000     7.0000     7.0000    14.0000    20.7603    -0.0021     3.5280 230963978453763573000000000000000.0000 43980349456293824.0000 -3317224547525088420000000000000.0000    14.4503    14.4503     0.000
      4   -40.8605     20.220     78.000 196001.000     20.000    41.5367    -6.1902   -56.9900   -83.8231     0.0409     0.0130    10.0000     7.0000     7.0000    10.0000    14.0000     7.0000     7.0000    14.0000    20.7603    -0.0021     3.5280 215628792907380139000000000000000.0000 41060210896929400.0000 -3096972652507184260000000000000.0000    14.4503    14.4503     0.000
      5   -41.0102     20.133     89.000 196001.000     20.000    41.5367    -6.1902   -56.9900   -83.8231     0.0409     0.0130    10.0000     7.0000     7.0000    10.0000    14.0000     7.0000     7.0000    14.0000    20.7603    -0.0021     3.5280 200284312260471435000000000000000.0000 38138302356929600.0000 -2876587256430634670000000000000.0000    14.4503    14.4503     0.000
      6   -41.1600     20.293    122.000 196001.000     20.000    41.5367    -6.1902   -56.9900   -83.8231     0.0409     0.0130    10.0000     7.0000     7.0000    10.0000    14.0000     7.0000     7.0000    14.0000    20.7603    -0.0021     3.5280 184935968577716823000000000000000.0000 35215658214488224.0000 -2656146377428047940000000000000.0000    14.4503    14.4503     0.000
      7   -41.3096     20.208    199.000 196001.000     20.000    41.5367    -6.1902   -56.9900   -83.8231     0.0409     0.0130    10.0000     7.0000     7.0000    10.0000    14.0000     7.0000     7.0000    14.0000    20.7603    -0.0021     3.5280 169603254571457614000000000000000.0000 32295990287813304.0000 -2435929979952354550000000000000.0000    14.4503    14.4503     0.000
      8   -41.4602     20.134    321.000 196001.000     20.000    41.5367    -6.1902   -56.9900   -83.8231     0.0409     0.0130    10.0000     7.0000     7.0000    10.0000    14.0000     7.0000     7.0000    14.0000    20.7603    -0.0021     3.5280 154172565874334356000000000000000.0000 29357665940466552.0000 -2214306419109672390000000000000.0000    14.4503    14.4503     0.000
      9   -41.6107     20.201    490.000 196001.000     20.000    41.5367    -6.1902   -56.9900   -83.8231     0.0409     0.0130    10.0000     7.0000     7.0000    10.0000    14.0000     7.0000     7.0000    14.0000    20.7603    -0.0021     3.5280 138750592713575286000000000000000.0000 26421001212674168.0000 -1992808035324281860000000000000.0000    14.4503    14.4503     0.000
     10   -41.7606     20.164    592.000 196001.000     20.000    41.5367    -6.1902   -56.9900   -83.8231     0.0409     0.0130    10.0000     7.0000     7.0000    10.0000    14.0000     7.0000     7.0000    14.0000    20.7603    -0.0021     3.5280 123386347467727960000000000000000.0000 23495329081598368.0000 -1772138769818392690000000000000.0000    14.4503    14.4503     0.000
     11   -41.9103     20.197    446.000 196001.000     20.000    41.5367    -6.1902   -56.9900   -83.8231     0.0409     0.0130    10.0000     7.0000     7.0000    10.0000    14.0000     7.0000     7.0000    14.0000    20.7603    -0.0021     3.5280 108038150944297570000000000000000.0000 20572712961355736.0000 -1551700004394346440000000000000.0000    14.4503    14.4503     0.000
     12   -42.0605     20.201    258.000 196001.000     20.000    41.5367    -6.1902   -56.9900   -83.8231     0.0409     0.0130    10.0000     7.0000     7.0000    10.0000    14.0000     7.0000     7.0000    14.0000    20.7603    -0.0021     3.5280 92649295131325764400000000000000.0000 17642354465983230.0000 -1330677269148507950000000000000.0000    14.4503    14.4503     0.000
     13   -42.2096     20.161    140.000 196001.000     20.000    41.5367    -6.1902   -56.9900   -83.8231     0.0409     0.0130    10.0000     7.0000     7.0000    10.0000    14.0000     7.0000     7.0000    14.0000    20.7603    -0.0021     3.5280 77358418180968564600000000000000.0000 14730653185670696.0000 -1111061757186520460000000000000.0000    14.4503    14.4503     0.000
     14   -42.3599     20.169     83.000 196001.000     20.000    41.5367    -6.1902   -56.9900   -83.8231     0.0409     0.0130    10.0000     7.0000     7.0000    10.0000    14.0000     7.0000     7.0000    14.0000    20.7603    -0.0021     3.5280 61949626247954362400000000000000.0000 11796498438033500.0000 -889752689036185300000000000000.0000    14.4503    14.4503     0.000
     15   -42.5101     20.166     90.000 196001.000     20.000    41.5367    -6.1902   -56.9900   -83.8231     0.0409     0.0130    10.0000     7.0000     7.0000    10.0000    14.0000     7.0000     7.0000    14.0000    20.7603    -0.0021     3.5280 46549665038499807300000000000000.0000 8864025243990533.0000 -668570452321333601000000000000.0000    14.4503    14.4503     0.000
     16   -42.6609     20.236     80.000 196001.000     20.000    41.5367    -6.1902   -56.9900   -83.8231     0.0409     0.0130    10.0000     7.0000     7.0000    10.0000    14.0000     7.0000     7.0000    14.0000    20.7603    -0.0021     3.5280 31094862766242472700000000000000.0000 5921109169967880.0000 -446600559795780942000000000000.0000    14.4503    14.4503     0.000
     17   -42.8105     20.130     70.000 196001.000     20.000    41.5367    -6.1902   -56.9900   -83.8231     0.0409     0.0130    10.0000     7.0000     7.0000    10.0000    14.0000     7.0000     7.0000    14.0000    20.7603    -0.0021     3.5280 15752349050212451700000000000000.0000 2999575174552824.0000 -226243413801479990000000000000.0000    14.4503    14.4503     0.000
     18   -42.9606     20.170     81.000 196001.000     20.000    41.5367    -6.1902   -56.9900   -83.8231     0.0409     0.0130    10.0000     7.0000     7.0000    10.0000    14.0000     7.0000     7.0000    14.0000    20.7603    -0.0021     3.5280 370595967924476684000000000000.0000 70569186959493.0000 -5322691660619429290000000000.0000    14.4503    14.4503     0.000
     19   -43.1100     20.223     77.000 196001.000     20.000    41.5367    -6.1902   -56.9900   -83.8231     0.0409     0.0130    10.0000     7.0000     7.0000    10.0000    14.0000     7.0000     7.0000    14.0000    20.7603    -0.0021     3.5280 -14945354915392975700000000000000.0000 -2845906692150723.0000 214652945141991856000000000000.0000    14.4503    14.4503     0.000
     20   -43.2598     20.264     88.000 196001.000     20.000    41.5367    -6.1902   -56.9900   -83.8231     0.0409     0.0130    10.0000     7.0000     7.0000    10.0000    14.0000     7.0000     7.0000    14.0000    20.7603    -0.0021     3.5280 -30308421623434348800000000000000.0000 -5771354405094736.0000 435305283876175545000000000000.0000    14.4503    14.4503     0.000
     21   -43.4099     20.192     64.000 196001.000     20.000    41.5367    -6.1902   -56.9900   -83.8231     0.0409     0.0130    10.0000     7.0000     7.0000    10.0000    14.0000     7.0000     7.0000    14.0000    20.7603    -0.0021     3.5280 -45689147329162983400000000000000.0000 -8700164758804348.0000 656211250301655829000000000000.0000    14.4503    14.4503     0.000
# Sum of Counts = 3610
# Center of Mass = -41.802346+/-0.983983
# Full Width Half-Maximum = 1.284758+/-0.328399
# 2:58:01 AM  4/12/2024   scan completed.
