# scan = 2028
# date = 4/16/2024
# time = 4:23:02 AM
# proposal = 33477
# experiment = Commissioning and enabling the 4-circle capability at VERITAS
# experiment_number = 1012
# command = scan s1 -19.37 -21.37 0.1
# builtin_command = scan s1 -19.37 -21.37 0.1
# users = Feng Ye, Mike McDowell, Adam Aczel, Bing Li, Wei Tian, Bing Li
# local_contact = Wei Tian, Adam Aczel
# scan_title = Nuclear_300K_2axis: (-1.00 1.00 1.00 )
# monochromator = PG002
# analyzer = Pg002
# sense = +-+
# collimation = 40-40-40-80
# samplename = La2Ni7, Al-doped CuFeO2
# sampletype = crystal
# samplemosaic = 30.000000
# latticeconstants = 5.263000,5.582000,7.591000,90.000000,90.000000,90.000000
# ubmatrix = -0.000000,0.179117,-0.000000,-0.000000,0.003291,-0.000000,-0.000000,0.000127,-0.000000
# mode = 0
# plane_normal = -0.000714,0.000226,1.000000
# ubconf = UB15Apr2024_11557PM.ini
# preset_type = normal 
# preset_channel = time
# preset_value = 13.000000
# def_x = s1
# def_y = detector
# col_headers = 
#   Pt.         s1       time   detector    monitor        mcu         m2        chi        phi         s2        sgl        sgu   slitb_bt   slitb_lf   slitb_rt   slitb_tp   slita_bt   slita_lf   slita_rt   slita_tp         a1         a2          q          h          k          l         ei         ef          e    coldtip     sample       temp
      1   -19.3698     13.000     22.000 124663.000     12.721    41.5367    32.0610    68.4303   -40.7411     0.0409     0.0130    10.0000     5.0000     5.0000    10.0000    12.0000     8.0000     8.0000    12.0000    90.0032    -0.0009     1.8385     0.0000     0.0000     0.0000    14.4503    14.4503     0.0000     0.0000     0.0000   300.000
      2   -19.4698     13.000     32.000 124760.000     12.731    41.5367    32.0610    68.4303   -40.7411     0.0409     0.0130    10.0000     5.0000     5.0000    10.0000    12.0000     8.0000     8.0000    12.0000    90.0032    -0.0009     1.8385     0.0000     0.0000     0.0000    14.4503    14.4503     0.0000     0.0000     0.0000   300.000
      3   -19.5704     13.000     41.000 124766.000     12.731    41.5367    32.0610    68.4303   -40.7411     0.0409     0.0130    10.0000     5.0000     5.0000    10.0000    12.0000     8.0000     8.0000    12.0000    90.0032    -0.0009     1.8385     0.0000     0.0000     0.0000    14.4503    14.4503     0.0000     0.0000     0.0000   300.000
      4   -19.6699     13.000     26.000 125015.000     12.757    41.5367    32.0610    68.4303   -40.7411     0.0409     0.0130    10.0000     5.0000     5.0000    10.0000    12.0000     8.0000     8.0000    12.0000    90.0032    -0.0009     1.8385     0.0000     0.0000     0.0000    14.4503    14.4503     0.0000     0.0000     0.0000   300.000
      5   -19.7704     13.000     30.000 124587.000     12.713    41.5367    32.0610    68.4303   -40.7411     0.0409     0.0130    10.0000     5.0000     5.0000    10.0000    12.0000     8.0000     8.0000    12.0000    90.0032    -0.0009     1.8385     0.0000     0.0000     0.0000    14.4503    14.4503     0.0000     0.0000     0.0000   300.000
      6   -19.8696     13.000     69.000 124383.000     12.692    41.5367    32.0610    68.4303   -40.7411     0.0409     0.0130    10.0000     5.0000     5.0000    10.0000    12.0000     8.0000     8.0000    12.0000    90.0032    -0.0009     1.8385     0.0000     0.0000     0.0000    14.4503    14.4503     0.0000     0.0000     0.0000   300.000
      7   -19.9700     13.000    494.000 124775.000     12.732    41.5367    32.0610    68.4303   -40.7411     0.0409     0.0130    10.0000     5.0000     5.0000    10.0000    12.0000     8.0000     8.0000    12.0000    90.0032    -0.0009     1.8385     0.0000     0.0000     0.0000    14.4503    14.4503     0.0000     0.0000     0.0000   300.000
      8   -20.0697     13.000   1474.000 124768.000     12.731    41.5367    32.0610    68.4303   -40.7411     0.0409     0.0130    10.0000     5.0000     5.0000    10.0000    12.0000     8.0000     8.0000    12.0000    90.0032    -0.0009     1.8385     0.0000     0.0000     0.0000    14.4503    14.4503     0.0000     0.0000     0.0000   300.000
      9   -20.1695     13.000   2512.000 125013.000     12.756    41.5367    32.0610    68.4303   -40.7411     0.0409     0.0130    10.0000     5.0000     5.0000    10.0000    12.0000     8.0000     8.0000    12.0000    90.0032    -0.0009     1.8385     0.0000     0.0000     0.0000    14.4503    14.4503     0.0000     0.0000     0.0000   300.000
     10   -20.2696     13.000   2964.000 124257.000     12.679    41.5367    32.0610    68.4303   -40.7411     0.0409     0.0130    10.0000     5.0000     5.0000    10.0000    12.0000     8.0000     8.0000    12.0000    90.0032    -0.0009     1.8385     0.0000     0.0000     0.0000    14.4503    14.4503     0.0000     0.0000     0.0000   300.000
     11   -20.3697     13.000   2548.000 124453.000     12.699    41.5367    32.0610    68.4303   -40.7411     0.0409     0.0130    10.0000     5.0000     5.0000    10.0000    12.0000     8.0000     8.0000    12.0000    90.0032    -0.0009     1.8385     0.0000     0.0000     0.0000    14.4503    14.4503     0.0000     0.0000     0.0000   300.000
     12   -20.4699     13.000   1234.000 124133.000     12.667    41.5367    32.0610    68.4303   -40.7411     0.0409     0.0130    10.0000     5.0000     5.0000    10.0000    12.0000     8.0000     8.0000    12.0000    90.0032    -0.0009     1.8385     0.0000     0.0000     0.0000    14.4503    14.4503     0.0000     0.0000     0.0000   300.000
     13   -20.5705     13.000    333.000 124605.000     12.715    41.5367    32.0610    68.4303   -40.7411     0.0409     0.0130    10.0000     5.0000     5.0000    10.0000    12.0000     8.0000     8.0000    12.0000    90.0032    -0.0009     1.8385     0.0000     0.0000     0.0000    14.4503    14.4503     0.0000     0.0000     0.0000   300.000
     14   -20.6701     13.000     73.000 124926.000     12.748    41.5367    32.0610    68.4303   -40.7411     0.0409     0.0130    10.0000     5.0000     5.0000    10.0000    12.0000     8.0000     8.0000    12.0000    90.0032    -0.0010     1.8385     0.0000     0.0000     0.0000    14.4503    14.4503     0.0000     0.0000     0.0000   300.000
     15   -20.7701     13.000     36.000 124267.000     12.680    41.5367    32.0610    68.4303   -40.7411     0.0409     0.0130    10.0000     5.0000     5.0000    10.0000    12.0000     8.0000     8.0000    12.0000    90.0032    -0.0009     1.8385     0.0000     0.0000     0.0000    14.4503    14.4503     0.0000     0.0000     0.0000   300.000
     16   -20.8700     13.000     26.000 124399.000     12.694    41.5367    32.0610    68.4303   -40.7411     0.0409     0.0130    10.0000     5.0000     5.0000    10.0000    12.0000     8.0000     8.0000    12.0000    90.0032    -0.0010     1.8385     0.0000     0.0000     0.0000    14.4503    14.4503     0.0000     0.0000     0.0000   300.000
     17   -20.9699     13.000     25.000 124493.000     12.703    41.5367    32.0610    68.4303   -40.7411     0.0409     0.0130    10.0000     5.0000     5.0000    10.0000    12.0000     8.0000     8.0000    12.0000    90.0032    -0.0009     1.8385     0.0000     0.0000     0.0000    14.4503    14.4503     0.0000     0.0000     0.0000   300.000
     18   -21.0699     13.000     38.000 124192.000     12.673    41.5367    32.0610    68.4303   -40.7411     0.0409     0.0130    10.0000     5.0000     5.0000    10.0000    12.0000     8.0000     8.0000    12.0000    90.0032    -0.0009     1.8385     0.0000     0.0000     0.0000    14.4503    14.4503     0.0000     0.0000     0.0000   300.000
     19   -21.1695     13.000     38.000 124870.000     12.742    41.5367    32.0610    68.4303   -40.7411     0.0409     0.0130    10.0000     5.0000     5.0000    10.0000    12.0000     8.0000     8.0000    12.0000    90.0032    -0.0009     1.8385     0.0000     0.0000     0.0000    14.4503    14.4503     0.0000     0.0000     0.0000   300.000
     20   -21.2697     13.000     27.000 124541.000     12.708    41.5367    32.0610    68.4303   -40.7411     0.0409     0.0130    10.0000     5.0000     5.0000    10.0000    12.0000     8.0000     8.0000    12.0000    90.0032    -0.0009     1.8385     0.0000     0.0000     0.0000    14.4503    14.4503     0.0000     0.0000     0.0000   300.000
     21   -21.3695     13.000     18.000 124698.000     12.724    41.5367    32.0610    68.4303   -40.7411     0.0409     0.0130    10.0000     5.0000     5.0000    10.0000    12.0000     8.0000     8.0000    12.0000    90.0032    -0.0009     1.8385     0.0000     0.0000     0.0000    14.4503    14.4503     0.0000     0.0000     0.0000   300.000
# Sum of Counts = 12060
# Center of Mass = -20.266936+/-0.260999
# Full Width Half-Maximum = 0.393126+/-0.123831
# 4:28:55 AM  4/16/2024   scan completed.
