# scan = 97
# date = 4/10/2024
# time = 12:42:16 AM
# proposal = 33477
# experiment = Commissioning and enabling the 4-circle capability at VERITAS
# experiment_number = 1012
# command = scanrel chi 6 -6 1
# builtin_command = scan chi @(chi)+6 @(chi)+-6 1.000000
# users = Feng Ye, Mike McDowell, Adam Aczel, Bing Li, Wei Tian, Bing Li
# local_contact = Wei Tian, Adam Aczel
# scan_title = La2Ni7-FC, (1 1 0), chi
# monochromator = PG002
# analyzer = Pg002
# sense = +-+
# collimation = 40-40-40-80
# samplename = La2Ni7, Al-doped CuFeO2
# sampletype = crystal
# samplemosaic = 30.000000
# latticeconstants = 
# ubmatrix = 
# mode = 0
# plane_normal = 0.000000,0.000000,0.000000
# ubconf = /C/SPICE/User/exp1012/UBConf/UB09Apr2024_32926PM.ini
# preset_type = normal 
# preset_channel = mcu
# preset_value = 10.000000
# def_x = chi
# def_y = detector
# col_headers = 
#   Pt.        chi       time   detector    monitor        mcu         m2        phi         s1         s2        sgl        sgu   slitb_bt   slitb_lf   slitb_rt   slitb_tp   slita_bt   slita_lf   slita_rt   slita_tp         a1         a2          q          h          k          l         ei         ef          e
      1    21.1125     11.254     62.000 106661.000     10.000    41.5367    50.9677   -25.7785   -51.5491     0.0409     0.0130    20.0000    10.0000    10.0000    20.0000    10.0000    10.0000    10.0000    10.0000    20.7602    -0.0010     2.2966     0.0000     0.0000     0.0000    14.4503    14.4503     0.000
      2    20.1115     11.227     51.000 106661.000     10.000    41.5367    50.9677   -25.7786   -51.5491     0.0409     0.0130    20.0000    10.0000    10.0000    20.0000    10.0000    10.0000    10.0000    10.0000    20.7602    -0.0010     2.2966     0.0000     0.0000     0.0000    14.4503    14.4503     0.000
      3    19.1118     11.210     59.000 106661.000     10.000    41.5367    50.9677   -25.7786   -51.5491     0.0409     0.0130    20.0000    10.0000    10.0000    20.0000    10.0000    10.0000    10.0000    10.0000    20.7602    -0.0010     2.2966     0.0000     0.0000     0.0000    14.4503    14.4503     0.000
      4    18.1118     11.236    198.000 106661.000     10.000    41.5367    50.9677   -25.7786   -51.5491     0.0409     0.0130    20.0000    10.0000    10.0000    20.0000    10.0000    10.0000    10.0000    10.0000    20.7602    -0.0010     2.2966     0.0000     0.0000     0.0000    14.4503    14.4503     0.000
      5    17.1118     11.251  11146.000 106661.000     10.000    41.5367    50.9677   -25.7786   -51.5491     0.0409     0.0130    20.0000    10.0000    10.0000    20.0000    10.0000    10.0000    10.0000    10.0000    20.7602    -0.0010     2.2966     0.0000     0.0000     0.0000    14.4503    14.4503     0.000
      6    16.1120     11.204  38314.000 106661.000     10.000    41.5367    50.9677   -25.7786   -51.5491     0.0409     0.0130    20.0000    10.0000    10.0000    20.0000    10.0000    10.0000    10.0000    10.0000    20.7602    -0.0010     2.2966     0.0000     0.0000     0.0000    14.4503    14.4503     0.000
      7    15.1118     11.201  54606.000 106661.000     10.000    41.5367    50.9677   -25.7786   -51.5491     0.0409     0.0130    20.0000    10.0000    10.0000    20.0000    10.0000    10.0000    10.0000    10.0000    20.7602    -0.0010     2.2966     0.0000     0.0000     0.0000    14.4503    14.4503     0.000
      8    14.1115     11.202  31064.000 106661.000     10.000    41.5367    50.9677   -25.7787   -51.5491     0.0409     0.0130    20.0000    10.0000    10.0000    20.0000    10.0000    10.0000    10.0000    10.0000    20.7602    -0.0010     2.2966     0.0000     0.0000     0.0000    14.4503    14.4503     0.000
      9    13.1118     11.148   6490.000 106661.000     10.000    41.5367    50.9677   -25.7786   -51.5491     0.0409     0.0130    20.0000    10.0000    10.0000    20.0000    10.0000    10.0000    10.0000    10.0000    20.7602    -0.0010     2.2966     0.0000     0.0000     0.0000    14.4503    14.4503     0.000
     10    12.1118     11.247     78.000 106661.000     10.000    41.5367    50.9677   -25.7787   -51.5491     0.0409     0.0130    20.0000    10.0000    10.0000    20.0000    10.0000    10.0000    10.0000    10.0000    20.7602    -0.0010     2.2966     0.0000     0.0000     0.0000    14.4503    14.4503     0.000
     11    11.1118     11.249     46.000 106661.000     10.000    41.5367    50.9677   -25.7787   -51.5491     0.0409     0.0130    20.0000    10.0000    10.0000    20.0000    10.0000    10.0000    10.0000    10.0000    20.7602    -0.0010     2.2966     0.0000     0.0000     0.0000    14.4503    14.4503     0.000
     12    10.1118     11.215     56.000 106661.000     10.000    41.5367    50.9677   -25.7787   -51.5491     0.0409     0.0130    20.0000    10.0000    10.0000    20.0000    10.0000    10.0000    10.0000    10.0000    20.7602    -0.0010     2.2966     0.0000     0.0000     0.0000    14.4503    14.4503     0.000
     13     9.1118     11.190     58.000 106661.000     10.000    41.5367    50.9677   -25.7787   -51.5491     0.0409     0.0130    20.0000    10.0000    10.0000    20.0000    10.0000    10.0000    10.0000    10.0000    20.7602    -0.0010     2.2966     0.0000     0.0000     0.0000    14.4503    14.4503     0.000
# Sum of Counts = 142228
# Center of Mass = 15.231125+/-0.057180
# Full Width Half-Maximum = 2.047680+/-0.043581
# 12:45:11 AM  4/10/2024   scan completed.
