# scan = 9
# date = 2/22/2025
# time = 1:47:25 PM
# proposal = 34324
# experiment = Advanced Silicon Fabrication Techniques in Neutron Interferometry
# experiment_number = 442
# command = scan s1 41.37 61.37 0.1
# builtin_command = scan s1 41.37 61.37 0.1
# users = Davis Last, Dusan Sarenac, Joseph Cotter, Jeremy Paster, Owen Lailey, Michael Huber, Dmitry Pushin, Naume Shentevski
# local_contact = Tao Hong
# scan_title =
# monochromator = PG002
# analyzer = Pg002
# sense = -+-
# collimation = 48-40-40-120
# samplename = Si
# sampletype = crystal
# samplemosaic = 30.000000
# latticeconstants = 3.135000,5.000000,5.000000,90.000000,90.000000,90.000000
# ubmatrix = -0.225552,-0.141421,0.000000,-0.000000,-0.000000,-0.200000,0.225552,-0.141421,0.000000
# mode = 0
# plane_normal = 0.000000,0.000000,1.000000
# ubconf = UB19Feb2025_123030PM.ini
# preset_type = normal
# preset_channel = time
# preset_value = 10.000000
# def_x = s1
# def_y = detector
# col_headers =
#   Pt.         s1       time   detector    monitor        mcu focal_length         m1         m2       marc     mtrans     mfocus         s2        sgl        sgu        bbb        bbl        bbr        bbt        bab        bal        bar        bat        stl        stu         a1         a2     afocus        qm1        qm2        qm3        qm4        qm5        qm6        qm7        qm8        xm1        xm2        xm3        xm4        xm5        xm6        xm7        xm8          q          h          k          l         ei         ef          e
      1    41.3675     10.000    240.000   5728.000      2.437    71.5389   153.4420   -53.1159     0.4200    -1.0000    35.6480     0.0000     0.0000     0.0000     0.0000     0.0000     0.0000     0.0000     4.0000     0.6000     0.6000    -3.5000     7.0000    -8.5000   139.0513   -81.8974     0.0000     0.0000     0.0000     0.0000     0.0000     0.0000     0.0000     0.0000     0.0000     0.0000     0.0000     0.0000     0.0000     0.0000     0.0000     0.0000     0.0000     0.6656     0.1552     0.2475     0.3975     9.0890     4.2300     4.859
      2    41.4725     10.000    236.000   5641.000      2.400    71.5389   153.4420   -53.1159     0.4200    -1.0000    35.6480     0.0000     0.0000     0.0000     0.0000     0.0000     0.0000     0.0000     4.0000     0.6000     0.6000    -3.5000     7.0000    -8.5000   139.0513   -81.8974     0.0000     0.0000     0.0000     0.0000     0.0000     0.0000     0.0000     0.0000     0.0000     0.0000     0.0000     0.0000     0.0000     0.0000     0.0000     0.0000     0.0000     0.6656     0.1555     0.2480     0.3969     9.0890     4.2300     4.859
      3    41.5725     10.000      0.000      0.000      0.000    71.5389   153.4420   -53.1159     0.4200    -1.0000    35.6480     0.0000     0.0000     0.0000     0.0000     0.0000     0.0000     0.0000     4.0000     0.6000     0.6000    -3.5000     7.0000    -8.5000   139.0513   -81.8974     0.0000     0.0000     0.0000     0.0000     0.0000     0.0000     0.0000     0.0000     0.0000     0.0000     0.0000     0.0000     0.0000     0.0000     0.0000     0.0000     0.0000     0.6656     0.1558     0.2485     0.3962     9.0890     4.2300     4.859
# Sum of Counts = 476
# Center of Mass = 41.419559+/-2.684832
# Full Width Half-Maximum = 0.104996+/-3.796794
# 1:48:10 PM  2/22/2025   scan stopped!!
