# scan = 15
# date = 10/24/2011
# time = 2:42:15 PM
# proposal = 5137
# experiment = Measurement of the phonon dispersion of Bismuch at high temperatures
# experiment_number = 25
# command = th2th -2 2 0.1
# builtin_command = scan s2 @(s2)+-2 @(s2)+2 0.100000 s1 @(s1)+(-2/2) @(s1)+(2/2) 0.050000
# users = Michael Manley and Olivier Delaire
# local_contact = T. Hong
# scan_title = Bi (0 0 3) room temperature inside CCR check
# monochromator = PG002
# analyzer = Pg002
# sense = -+-
# collimation = 48-40-40-120
# samplename = C32D24CuN2O14
# sampletype = crystal
# samplemosaic = 30.000000
# latticeconstants = 4.550000,4.550000,11.875419,90.000000,90.000000,120.000000
# ubmatrix = -0.023278,-0.019310,-0.083801,-0.252709,-0.126355,0.007729,-0.000813,0.219240,-0.002926
# mode = 0
# plane_normal = -0.034900,0.000000,0.999391
# ubconf = UB24Oct2011_121211PM.ini
# preset_type = normal 
# preset_channel = time
# preset_value = 1.000000
# def_x = s2
# def_y = detector
# col_headers = 
#   Pt.         s2         s1       time   detector    monitor        mcu focal_length         m1         m2       marc     mtrans     mfocus        sgl        sgu        stl        stu         a1         a2          q          h          k          l         ei         ef          e cold_tip_[a] sample_[b]   e_typ_tc   au-fe_tc       temp
      1    59.4490    32.1749      1.000      9.000   2238.000      0.018    96.4440   142.9286   -74.1428     0.6500     0.0000    34.9840    -2.7387     0.0000     0.0000     0.0000   142.9286   -74.1428     1.5404     0.0011     0.0921     2.8980     5.0000     5.0000     0.0000   297.5320   296.8010   300.8990   293.9700   300.000
      2    59.5490    32.2249      1.000     22.000   2323.000      0.018    96.4440   142.9286   -74.1428     0.6500     0.0000    34.9840    -2.7387     0.0000     0.0000     0.0000   142.9286   -74.1428     1.5428     0.0011     0.0922     2.9025     5.0000     5.0000     0.0000   297.5400   296.8040   300.9130   293.9360   300.000
      3    59.6490    32.2749      1.000     21.000   2296.000      0.018    96.4440   142.9286   -74.1428     0.6500     0.0000    34.9840    -2.7387     0.0000     0.0000     0.0000   142.9286   -74.1428     1.5451     0.0011     0.0924     2.9069     5.0000     5.0000     0.0000   297.5470   296.8070   300.9280   293.8800   300.000
      4    59.7490    32.3249      1.000     31.000   2221.000      0.017    96.4440   142.9286   -74.1428     0.6500     0.0000    34.9840    -2.7387     0.0000     0.0000     0.0000   142.9286   -74.1428     1.5475     0.0011     0.0925     2.9113     5.0000     5.0000     0.0000   297.5540   296.8100   300.9420   293.8290   300.000
      5    59.8490    32.3749      1.000     43.000   2278.000      0.018    96.4440   142.9286   -74.1428     0.6500     0.0000    34.9840    -2.7387     0.0000     0.0000     0.0000   142.9286   -74.1428     1.5498     0.0011     0.0926     2.9157     5.0000     5.0000     0.0000   297.5590   296.8120   300.9590   293.8830   300.000
      6    59.9490    32.4249      1.000     62.000   2302.000      0.018    96.4440   142.9286   -74.1428     0.6500     0.0000    34.9840    -2.7387     0.0000     0.0000     0.0000   142.9286   -74.1428     1.5522     0.0011     0.0928     2.9202     5.0000     5.0000     0.0000   297.5630   296.8140   300.9740   293.9230   300.000
      7    60.0490    32.4749      1.000     89.000   2330.000      0.018    96.4440   142.9286   -74.1428     0.6500     0.0000    34.9840    -2.7387     0.0000     0.0000     0.0000   142.9286   -74.1428     1.5545     0.0011     0.0929     2.9246     5.0000     5.0000     0.0000   297.5710   296.8170   300.9590   293.8540   300.000
      8    60.1490    32.5249      1.000    174.000   2276.000      0.018    96.4440   142.9286   -74.1428     0.6500     0.0000    34.9840    -2.7387     0.0000     0.0000     0.0000   142.9286   -74.1428     1.5569     0.0011     0.0931     2.9290     5.0000     5.0000     0.0000   297.5750   296.8190   300.9650   293.8630   300.000
      9    60.2490    32.5749      1.000    256.000   2316.000      0.018    96.4440   142.9286   -74.1428     0.6500     0.0000    34.9840    -2.7387     0.0000     0.0000     0.0000   142.9286   -74.1428     1.5592     0.0011     0.0932     2.9334     5.0000     5.0000     0.0000   297.5740   296.8180   300.9910   293.9490   300.000
     10    60.3490    32.6249      1.000    584.000   2196.000      0.017    96.4440   142.9286   -74.1428     0.6500     0.0000    34.9840    -2.7387     0.0000     0.0000     0.0000   142.9286   -74.1428     1.5616     0.0011     0.0933     2.9378     5.0000     5.0000     0.0000   297.5790   296.8210   300.9930   293.9090   300.000
     11    60.4490    32.6749      1.000   1474.000   2301.000      0.018    96.4440   142.9286   -74.1428     0.6500     0.0000    34.9840    -2.7387     0.0000     0.0000     0.0000   142.9286   -74.1428     1.5639     0.0011     0.0935     2.9422     5.0000     5.0000     0.0000   297.5800   296.8210   301.0140   293.9640   300.000
     12    60.5490    32.7249      1.000   3553.000   2343.000      0.018    96.4440   142.9286   -74.1428     0.6500     0.0000    34.9840    -2.7387     0.0000     0.0000     0.0000   142.9286   -74.1428     1.5662     0.0011     0.0936     2.9466     5.0000     5.0000     0.0000   297.5860   296.8240   300.9940   293.9010   300.000
     13    60.6490    32.7749      1.000   8441.000   2312.000      0.018    96.4440   142.9286   -74.1428     0.6500     0.0000    34.9840    -2.7387     0.0000     0.0000     0.0000   142.9286   -74.1428     1.5686     0.0011     0.0938     2.9510     5.0000     5.0000     0.0000   297.5910   296.8260   301.0060   293.9010   300.000
     14    60.7490    32.8249      1.000  17808.000   2291.000      0.018    96.4440   142.9286   -74.1428     0.6500     0.0000    34.9840    -2.7387     0.0000     0.0000     0.0000   142.9286   -74.1428     1.5709     0.0011     0.0939     2.9554     5.0000     5.0000     0.0000   297.5990   296.8290   300.9960   293.8790   300.000
     15    60.8490    32.8749      1.000  32427.000   2234.000      0.017    96.4440   142.9286   -74.1428     0.6500     0.0000    34.9840    -2.7387     0.0000     0.0000     0.0000   142.9286   -74.1428     1.5733     0.0011     0.0940     2.9598     5.0000     5.0000     0.0000   297.6030   296.8300   300.9940   293.8940   300.000
     16    60.9490    32.9249      1.000  51580.000   2311.000      0.018    96.4440   142.9286   -74.1428     0.6500     0.0000    34.9840    -2.7387     0.0000     0.0000     0.0000   142.9286   -74.1428     1.5756     0.0011     0.0942     2.9642     5.0000     5.0000     0.0000   297.6080   296.8330   300.9800   293.8820   300.000
     17    61.0490    32.9749      1.000  71614.000   2284.000      0.018    96.4440   142.9286   -74.1428     0.6500     0.0000    34.9840    -2.7387     0.0000     0.0000     0.0000   142.9286   -74.1428     1.5779     0.0011     0.0943     2.9686     5.0000     5.0000     0.0000   297.6130   296.8340   300.9770   294.0220   300.000
     18    61.1490    33.0249      1.000  91426.000   2246.000      0.018    96.4440   142.9286   -74.1428     0.6500     0.0000    34.9840    -2.7387     0.0000     0.0000     0.0000   142.9286   -74.1428     1.5803     0.0011     0.0945     2.9730     5.0000     5.0000     0.0000   297.6110   296.8350   300.9730   293.9940   300.000
     19    61.2490    33.0749      1.000 106392.000   2339.000      0.018    96.4440   142.9286   -74.1428     0.6500     0.0000    34.9840    -2.7387     0.0000     0.0000     0.0000   142.9286   -74.1428     1.5826     0.0011     0.0946     2.9774     5.0000     5.0000     0.0000   297.6140   296.8360   300.9530   293.9520   300.000
     20    61.3490    33.1249      1.000 116948.000   2292.000      0.018    96.4440   142.9286   -74.1428     0.6500     0.0000    34.9840    -2.7387     0.0000     0.0000     0.0000   142.9286   -74.1428     1.5849     0.0012     0.0947     2.9818     5.0000     5.0000     0.0000   297.6160   296.8380   300.9480   293.9640   300.000
     21    61.4490    33.1749      1.000 121972.000   2216.000      0.017    96.4440   142.9286   -74.1428     0.6500     0.0000    34.9840    -2.7387     0.0000     0.0000     0.0000   142.9286   -74.1428     1.5873     0.0012     0.0949     2.9862     5.0000     5.0000     0.0000   297.6180   296.8390   300.9380   293.9440   300.000
     22    61.5490    33.2249      1.000 120343.000   2273.000      0.018    96.4440   142.9286   -74.1428     0.6500     0.0000    34.9840    -2.7387     0.0000     0.0000     0.0000   142.9286   -74.1428     1.5896     0.0012     0.0950     2.9906     5.0000     5.0000     0.0000   297.6250   296.8420   300.9110   293.8860   300.000
     23    61.6490    33.2749      1.000 112258.000   2237.000      0.018    96.4440   142.9286   -74.1428     0.6500     0.0000    34.9840    -2.7387     0.0000     0.0000     0.0000   142.9286   -74.1428     1.5919     0.0012     0.0951     2.9949     5.0000     5.0000     0.0000   297.6330   296.8450   300.8930   293.8730   300.000
     24    61.7490    33.3249      1.000  96021.000   2295.000      0.018    96.4440   142.9286   -74.1428     0.6500     0.0000    34.9840    -2.7387     0.0000     0.0000     0.0000   142.9286   -74.1428     1.5943     0.0012     0.0953     2.9993     5.0000     5.0000     0.0000   297.6300   296.8430   300.9000   293.9780   300.000
     25    61.8490    33.3749      1.000  75050.000   2279.000      0.018    96.4440   142.9286   -74.1428     0.6500     0.0000    34.9840    -2.7387     0.0000     0.0000     0.0000   142.9286   -74.1428     1.5966     0.0012     0.0954     3.0037     5.0000     5.0000     0.0000   297.6320   296.8440   300.8930   293.9460   300.000
     26    61.9490    33.4249      1.000  52275.000   2315.000      0.018    96.4440   142.9286   -74.1428     0.6500     0.0000    34.9840    -2.7387     0.0000     0.0000     0.0000   142.9286   -74.1428     1.5989     0.0012     0.0956     3.0081     5.0000     5.0000     0.0000   297.6330   296.8440   300.8890   294.0000   300.000
     27    62.0490    33.4749      1.000  32411.000   2174.000      0.017    96.4440   142.9286   -74.1428     0.6500     0.0000    34.9840    -2.7387     0.0000     0.0000     0.0000   142.9286   -74.1428     1.6012     0.0012     0.0957     3.0124     5.0000     5.0000     0.0000   297.6350   296.8450   300.8780   294.0500   300.000
     28    62.1490    33.5249      1.000  17639.000   2237.000      0.018    96.4440   142.9286   -74.1428     0.6500     0.0000    34.9840    -2.7387     0.0000     0.0000     0.0000   142.9286   -74.1428     1.6036     0.0012     0.0958     3.0168     5.0000     5.0000     0.0000   297.6380   296.8470   300.8540   294.0580   300.000
     29    62.2490    33.5749      1.000   9023.000   2375.000      0.019    96.4440   142.9286   -74.1428     0.6500     0.0000    34.9840    -2.7387     0.0000     0.0000     0.0000   142.9286   -74.1428     1.6059     0.0012     0.0960     3.0212     5.0000     5.0000     0.0000   297.6410   296.8490   300.8480   294.0930   300.000
     30    62.3490    33.6249      1.000   4451.000   2275.000      0.018    96.4440   142.9286   -74.1428     0.6500     0.0000    34.9840    -2.7387     0.0000     0.0000     0.0000   142.9286   -74.1428     1.6082     0.0012     0.0961     3.0255     5.0000     5.0000     0.0000   297.6420   296.8490   300.8440   294.0390   300.000
     31    62.4490    33.6749      1.000   2174.000   2305.000      0.018    96.4440   142.9286   -74.1428     0.6500     0.0000    34.9840    -2.7387     0.0000     0.0000     0.0000   142.9286   -74.1428     1.6105     0.0012     0.0963     3.0299     5.0000     5.0000     0.0000   297.6430   296.8500   300.8250   294.1130   300.000
     32    62.5490    33.7249      1.000   1033.000   2363.000      0.018    96.4440   142.9286   -74.1428     0.6500     0.0000    34.9840    -2.7387     0.0000     0.0000     0.0000   142.9286   -74.1428     1.6128     0.0012     0.0964     3.0343     5.0000     5.0000     0.0000   297.6430   296.8510   300.7940   294.1350   300.000
     33    62.6490    33.7749      1.000    520.000   2307.000      0.018    96.4440   142.9286   -74.1428     0.6500     0.0000    34.9840    -2.7387     0.0000     0.0000     0.0000   142.9286   -74.1428     1.6152     0.0012     0.0965     3.0386     5.0000     5.0000     0.0000   297.6450   296.8520   300.7700   294.0900   300.000
     34    62.7490    33.8249      1.000    258.000   2382.000      0.019    96.4440   142.9286   -74.1428     0.6500     0.0000    34.9840    -2.7387     0.0000     0.0000     0.0000   142.9286   -74.1428     1.6175     0.0012     0.0967     3.0430     5.0000     5.0000     0.0000   297.6490   296.8540   300.7440   294.0540   300.000
     35    62.8490    33.8749      1.000    132.000   2358.000      0.018    96.4440   142.9286   -74.1428     0.6500     0.0000    34.9840    -2.7387     0.0000     0.0000     0.0000   142.9286   -74.1428     1.6198     0.0012     0.0968     3.0473     5.0000     5.0000     0.0000   297.6530   296.8560   300.7140   294.0460   300.000
     36    62.9490    33.9249      1.000     56.000   2272.000      0.018    96.4440   142.9286   -74.1428     0.6500     0.0000    34.9840    -2.7387     0.0000     0.0000     0.0000   142.9286   -74.1428     1.6221     0.0012     0.0970     3.0517     5.0000     5.0000     0.0000   297.6560   296.8590   300.6820   294.0300   300.000
     37    63.0490    33.9749      1.000     39.000   2265.000      0.018    96.4440   142.9286   -74.1428     0.6500     0.0000    34.9840    -2.7387     0.0000     0.0000     0.0000   142.9286   -74.1428     1.6244     0.0012     0.0971     3.0560     5.0000     5.0000     0.0000   297.6620   296.8620   300.6460   294.0440   300.000
     38    63.1490    34.0249      1.000     21.000   2300.000      0.018    96.4440   142.9286   -74.1428     0.6500     0.0000    34.9840    -2.7387     0.0000     0.0000     0.0000   142.9286   -74.1428     1.6267     0.0012     0.0972     3.0604     5.0000     5.0000     0.0000   297.6650   296.8630   300.6250   294.0210   300.000
     39    63.2490    34.0749      1.000     16.000   2292.000      0.018    96.4440   142.9286   -74.1428     0.6500     0.0000    34.9840    -2.7387     0.0000     0.0000     0.0000   142.9286   -74.1428     1.6290     0.0012     0.0974     3.0647     5.0000     5.0000     0.0000   297.6640   296.8630   300.6150   294.0410   300.000
     40    63.3490    34.1249      1.000     14.000   2311.000      0.018    96.4440   142.9286   -74.1428     0.6500     0.0000    34.9840    -2.7387     0.0000     0.0000     0.0000   142.9286   -74.1428     1.6313     0.0012     0.0975     3.0691     5.0000     5.0000     0.0000   297.6690   296.8660   300.5810   294.0330   300.000
     41    63.4490    34.1749      1.000     11.000   2312.000      0.018    96.4440   142.9286   -74.1428     0.6500     0.0000    34.9840    -2.7387     0.0000     0.0000     0.0000   142.9286   -74.1428     1.6336     0.0012     0.0976     3.0734     5.0000     5.0000     0.0000   297.6700   296.8660   300.5630   294.0460   300.000
# Sum of Counts = 1148671
# Center of Mass = 61.455430+/-0.081093
# Full Width Half-Maximum = 0.709564+/-0.033497
# 2:43:42 PM  10/24/2011   scan completed.
