# scan = 207
# date = 3/12/2025
# time = 10:27:15 AM
# proposal = 35030
# experiment = CTAX Instrumental resolution benchmarking
# experiment_number = 445
# command = scan h 1.2 0.8 0.002 k 0 l 7 e 0.15 preset mcu 5
# builtin_command = scan h 1.2 0.8 0.002 k 0 l 7 e 0.15 preset mcu 5
# users = Tao Hong, Tao Hong, Bing Li
# local_contact = Tao Hong
# scan_title = (H07) scan at E=0.15 meV and hori-focusing
# monochromator = PG002
# analyzer = Pg002
# sense = -+-
# collimation = 48-40-40-120
# samplename = LaN
# sampletype = crystal
# samplemosaic = 30.000000
# latticeconstants = 5.058628,5.058628,24.728465,90.000000,90.000000,120.000000
# ubmatrix = -0.002928,0.001986,-0.040430,-0.228168,-0.119258,0.000500,-0.005924,0.194622,0.000719
# mode = 0
# plane_normal = 0.017452,-0.026173,0.999505
# ubconf = UB10Mar2025_114214AM.ini
# preset_type = normal
# preset_channel = mcu
# preset_value = 5.000000
# def_x = h
# def_y = detector
# col_headers =
#   Pt.          h          k          l          e       time   detector    monitor        mcu focal_length         m1         m2       marc     mtrans     mfocus   vti_temp  smpl_temp         s1         s2        sgl        sgu        bbb        bbl        bbr        bbt        bab        bal        bar        bat        stl        stu         a1         a2     afocus        qm1        qm2        qm3        qm4        qm5        qm6        qm7        qm8        xm1        xm2        xm3        xm4        xm5        xm6        xm7        xm8          q         ei         ef
      1     1.2000    -0.0000     7.0000     0.1500      5.080     18.000  11001.000      5.000    96.9304   142.7102   -74.5796     0.4200    -1.0000    28.5600     0.0000     0.0000    10.7850   107.5698    -1.0000    -1.5000     0.0000     0.0000     0.0000     0.0000    17.0000     8.0000     8.0000    17.0000     0.0000     0.0000   142.0306   -75.9388     0.0000    -4.2998    -2.9995    -1.8994    -0.6005     0.4003     1.8994     2.7994     3.8002    31.3400    22.1100    13.8400     6.4800    -5.6200   -10.4100   -14.3900   -16.8000     2.4750     4.9500     4.800
      2     1.1979    -0.0000     7.0003     0.1500      5.012     16.000  11001.000      5.000    96.9304   142.7102   -74.5796     0.4200    -1.0000    28.5600     0.0000     0.0000    10.7725   107.4438    -1.0000    -1.5000     0.0000     0.0000     0.0000     0.0000    17.0000     8.0000     8.0000    17.0000     0.0000     0.0000   142.0306   -75.9388     0.0000    -4.2998    -2.9995    -1.8994    -0.6005     0.4003     1.8994     2.7994     3.8002    31.3400    22.1100    13.8400     6.4800    -5.6200   -10.4100   -14.3900   -16.8000     2.4730     4.9500     4.800
      3     1.1960    -0.0000     6.9999     0.1500      5.123     25.000  11001.000      5.000    96.9304   142.7102   -74.5796     0.4200    -1.0000    28.5600     0.0000     0.0000    10.7550   107.3181    -1.0000    -1.5000     0.0000     0.0000     0.0000     0.0000    17.0000     8.0000     8.0000    17.0000     0.0000     0.0000   142.0306   -75.9388     0.0000    -4.2998    -2.9995    -1.8994    -0.6005     0.4003     1.8994     2.7994     3.8002    31.3400    22.1100    13.8400     6.4800    -5.6200   -10.4100   -14.3900   -16.8000     2.4710     4.9500     4.800
      4     1.1940    -0.0000     7.0001     0.1500      5.022     15.000  11001.000      5.000    96.9304   142.7102   -74.5796     0.4200    -1.0000    28.5600     0.0000     0.0000    10.7425   107.1927    -1.0000    -1.5000     0.0000     0.0000     0.0000     0.0000    17.0000     8.0000     8.0000    17.0000     0.0000     0.0000   142.0306   -75.9388     0.0000    -4.2998    -2.9995    -1.8994    -0.6005     0.4003     1.8994     2.7994     3.8002    31.3400    22.1100    13.8400     6.4800    -5.6200   -10.4100   -14.3900   -16.8000     2.4690     4.9500     4.800
      5     1.1920    -0.0000     6.9999     0.1500      5.064     23.000  11001.000      5.000    96.9304   142.7102   -74.5796     0.4200    -1.0000    28.5600     0.0000     0.0000    10.7275   107.0676    -1.0000    -1.5000     0.0000     0.0000     0.0000     0.0000    17.0000     8.0000     8.0000    17.0000     0.0000     0.0000   142.0306   -75.9388     0.0000    -4.2998    -2.9995    -1.8994    -0.6005     0.4003     1.8994     2.7994     3.8002    31.3400    22.1100    13.8400     6.4800    -5.6200   -10.4100   -14.3900   -16.8000     2.4670     4.9500     4.800
      6     1.1900    -0.0000     7.0001     0.1500      5.043     21.000  11001.000      5.000    96.9304   142.7102   -74.5796     0.4200    -1.0000    28.5600     0.0000     0.0000    10.7150   106.9428    -1.0000    -1.5000     0.0000     0.0000     0.0000     0.0000    17.0000     8.0000     8.0000    17.0000     0.0000     0.0000   142.0306   -75.9388     0.0000    -4.2998    -2.9995    -1.8994    -0.6005     0.4003     1.8994     2.7994     3.8002    31.3400    22.1100    13.8400     6.4800    -5.6200   -10.4100   -14.3900   -16.8000     2.4650     4.9500     4.800
      7     1.1880    -0.0000     7.0002     0.1500      5.011     18.000  11001.000      5.000    96.9304   142.7102   -74.5796     0.4200    -1.0000    28.5600     0.0000     0.0000    10.7025   106.8183    -1.0000    -1.5000     0.0000     0.0000     0.0000     0.0000    17.0000     8.0000     8.0000    17.0000     0.0000     0.0000   142.0306   -75.9388     0.0000    -4.2998    -2.9995    -1.8994    -0.6005     0.4003     1.8994     2.7994     3.8002    31.3400    22.1100    13.8400     6.4800    -5.6200   -10.4100   -14.3900   -16.8000     2.4630     4.9500     4.800
      8     1.1860    -0.0000     6.9999     0.1500      5.000     27.000  11001.000      5.000    96.9304   142.7102   -74.5796     0.4200    -1.0000    28.5600     0.0000     0.0000    10.6875   106.6941    -1.0000    -1.5000     0.0000     0.0000     0.0000     0.0000    17.0000     8.0000     8.0000    17.0000     0.0000     0.0000   142.0306   -75.9388     0.0000    -4.2998    -2.9995    -1.8994    -0.6005     0.4003     1.8994     2.7994     3.8002    31.3400    22.1100    13.8400     6.4800    -5.6200   -10.4100   -14.3900   -16.8000     2.4611     4.9500     4.800
      9     1.1840    -0.0000     7.0000     0.1500      5.141     20.000  11001.000      5.000    96.9304   142.7102   -74.5796     0.4200    -1.0000    28.5600     0.0000     0.0000    10.6750   106.5702    -1.0000    -1.5000     0.0000     0.0000     0.0000     0.0000    17.0000     8.0000     8.0000    17.0000     0.0000     0.0000   142.0306   -75.9388     0.0000    -4.2998    -2.9995    -1.8994    -0.6005     0.4003     1.8994     2.7994     3.8002    31.3400    22.1100    13.8400     6.4800    -5.6200   -10.4100   -14.3900   -16.8000     2.4591     4.9500     4.800
     10     1.1820    -0.0000     7.0000     0.1500      5.047     24.000  11001.000      5.000    96.9304   142.7102   -74.5796     0.4200    -1.0000    28.5600     0.0000     0.0000    10.6625   106.4465    -1.0000    -1.5000     0.0000     0.0000     0.0000     0.0000    17.0000     8.0000     8.0000    17.0000     0.0000     0.0000   142.0306   -75.9388     0.0000    -4.2998    -2.9995    -1.8994    -0.6005     0.4003     1.8994     2.7994     3.8002    31.3400    22.1100    13.8400     6.4800    -5.6200   -10.4100   -14.3900   -16.8000     2.4571     4.9500     4.800
     11     1.1800    -0.0000     7.0000     0.1500      5.099     26.000  11001.000      5.000    96.9304   142.7102   -74.5796     0.4200    -1.0000    28.5600     0.0000     0.0000    10.6500   106.3232    -1.0000    -1.5000     0.0000     0.0000     0.0000     0.0000    17.0000     8.0000     8.0000    17.0000     0.0000     0.0000   142.0306   -75.9388     0.0000    -4.2998    -2.9995    -1.8994    -0.6005     0.4003     1.8994     2.7994     3.8002    31.3400    22.1100    13.8400     6.4800    -5.6200   -10.4100   -14.3900   -16.8000     2.4551     4.9500     4.800
     12     1.1780    -0.0000     7.0000     0.1500      5.033     22.000  11001.000      5.000    96.9304   142.7102   -74.5796     0.4200    -1.0000    28.5600     0.0000     0.0000    10.6375   106.2001    -1.0000    -1.5000     0.0000     0.0000     0.0000     0.0000    17.0000     8.0000     8.0000    17.0000     0.0000     0.0000   142.0306   -75.9388     0.0000    -4.2998    -2.9995    -1.8994    -0.6005     0.4003     1.8994     2.7994     3.8002    31.3400    22.1100    13.8400     6.4800    -5.6200   -10.4100   -14.3900   -16.8000     2.4531     4.9500     4.800
     13     1.1760    -0.0000     6.9999     0.1500      5.099     21.000  11001.000      5.000    96.9304   142.7102   -74.5796     0.4200    -1.0000    28.5600     0.0000     0.0000    10.6250   106.0774    -1.0000    -1.5000     0.0000     0.0000     0.0000     0.0000    17.0000     8.0000     8.0000    17.0000     0.0000     0.0000   142.0306   -75.9388     0.0000    -4.2998    -2.9995    -1.8994    -0.6005     0.4003     1.8994     2.7994     3.8002    31.3400    22.1100    13.8400     6.4800    -5.6200   -10.4100   -14.3900   -16.8000     2.4512     4.9500     4.800
     14     1.1740    -0.0000     7.0001     0.1500      5.050     28.000  11001.000      5.000    96.9304   142.7102   -74.5796     0.4200    -1.0000    28.5600     0.0000     0.0000    10.6150   105.9548    -1.0000    -1.5000     0.0000     0.0000     0.0000     0.0000    17.0000     8.0000     8.0000    17.0000     0.0000     0.0000   142.0306   -75.9388     0.0000    -4.2998    -2.9995    -1.8994    -0.6005     0.4003     1.8994     2.7994     3.8002    31.3400    22.1100    13.8400     6.4800    -5.6200   -10.4100   -14.3900   -16.8000     2.4492     4.9500     4.800
     15     1.1720    -0.0000     7.0000     0.1500      5.113     19.000  11001.000      5.000    96.9304   142.7102   -74.5796     0.4200    -1.0000    28.5600     0.0000     0.0000    10.6025   105.8326    -1.0000    -1.5000     0.0000     0.0000     0.0000     0.0000    17.0000     8.0000     8.0000    17.0000     0.0000     0.0000   142.0306   -75.9388     0.0000    -4.2998    -2.9995    -1.8994    -0.6005     0.4003     1.8994     2.7994     3.8002    31.3400    22.1100    13.8400     6.4800    -5.6200   -10.4100   -14.3900   -16.8000     2.4472     4.9500     4.800
     16     1.1700    -0.0000     6.9999     0.1500      5.105     25.000  11001.000      5.000    96.9304   142.7102   -74.5796     0.4200    -1.0000    28.5600     0.0000     0.0000    10.5900   105.7107    -1.0000    -1.5000     0.0000     0.0000     0.0000     0.0000    17.0000     8.0000     8.0000    17.0000     0.0000     0.0000   142.0306   -75.9388     0.0000    -4.2998    -2.9995    -1.8994    -0.6005     0.4003     1.8994     2.7994     3.8002    31.3400    22.1100    13.8400     6.4800    -5.6200   -10.4100   -14.3900   -16.8000     2.4453     4.9500     4.800
     17     1.1680    -0.0000     7.0000     0.1500      5.100     17.000  11001.000      5.000    96.9304   142.7102   -74.5796     0.4200    -1.0000    28.5600     0.0000     0.0000    10.5800   105.5891    -1.0000    -1.5000     0.0000     0.0000     0.0000     0.0000    17.0000     8.0000     8.0000    17.0000     0.0000     0.0000   142.0306   -75.9388     0.0000    -4.2998    -2.9995    -1.8994    -0.6005     0.4003     1.8994     2.7994     3.8002    31.3400    22.1100    13.8400     6.4800    -5.6200   -10.4100   -14.3900   -16.8000     2.4433     4.9500     4.800
     18     1.1660    -0.0000     6.9999     0.1500      5.036     18.000  11001.000      5.000    96.9304   142.7102   -74.5796     0.4200    -1.0000    28.5600     0.0000     0.0000    10.5675   105.4677    -1.0000    -1.5000     0.0000     0.0000     0.0000     0.0000    17.0000     8.0000     8.0000    17.0000     0.0000     0.0000   142.0306   -75.9388     0.0000    -4.2998    -2.9995    -1.8994    -0.6005     0.4003     1.8994     2.7994     3.8002    31.3400    22.1100    13.8400     6.4800    -5.6200   -10.4100   -14.3900   -16.8000     2.4413     4.9500     4.800
     19     1.1640    -0.0000     7.0002     0.1500      5.010     27.000  11001.000      5.000    96.9304   142.7102   -74.5796     0.4200    -1.0000    28.5600     0.0000     0.0000    10.5600   105.3466    -1.0000    -1.5000     0.0000     0.0000     0.0000     0.0000    17.0000     8.0000     8.0000    17.0000     0.0000     0.0000   142.0306   -75.9388     0.0000    -4.2998    -2.9995    -1.8994    -0.6005     0.4003     1.8994     2.7994     3.8002    31.3400    22.1100    13.8400     6.4800    -5.6200   -10.4100   -14.3900   -16.8000     2.4394     4.9500     4.800
     20     1.1621    -0.0000     6.9997     0.1500      5.061     16.000  11001.000      5.000    96.9304   142.7102   -74.5796     0.4200    -1.0000    28.5600     0.0000     0.0000    10.5450   105.2258    -1.0000    -1.5000     0.0000     0.0000     0.0000     0.0000    17.0000     8.0000     8.0000    17.0000     0.0000     0.0000   142.0306   -75.9388     0.0000    -4.2998    -2.9995    -1.8994    -0.6005     0.4003     1.8994     2.7994     3.8002    31.3400    22.1100    13.8400     6.4800    -5.6200   -10.4100   -14.3900   -16.8000     2.4374     4.9500     4.800
     21     1.1599    -0.0000     7.0003     0.1500      5.044     17.000  11001.000      5.000    96.9304   142.7102   -74.5796     0.4200    -1.0000    28.5600     0.0000     0.0000    10.5400   105.1053    -1.0000    -1.5000     0.0000     0.0000     0.0000     0.0000    17.0000     8.0000     8.0000    17.0000     0.0000     0.0000   142.0306   -75.9388     0.0000    -4.2998    -2.9995    -1.8994    -0.6005     0.4003     1.8994     2.7994     3.8002    31.3400    22.1100    13.8400     6.4800    -5.6200   -10.4100   -14.3900   -16.8000     2.4354     4.9500     4.800
     22     1.1580    -0.0000     7.0000     0.1500      5.051     23.000  11001.000      5.000    96.9304   142.7102   -74.5796     0.4200    -1.0000    28.5600     0.0000     0.0000    10.5275   104.9850    -1.0000    -1.5000     0.0000     0.0000     0.0000     0.0000    17.0000     8.0000     8.0000    17.0000     0.0000     0.0000   142.0306   -75.9388     0.0000    -4.2998    -2.9995    -1.8994    -0.6005     0.4003     1.8994     2.7994     3.8002    31.3400    22.1100    13.8400     6.4800    -5.6200   -10.4100   -14.3900   -16.8000     2.4335     4.9500     4.800
     23     1.1560    -0.0000     7.0000     0.1500      4.981     20.000  11001.000      5.000    96.9304   142.7102   -74.5796     0.4200    -1.0000    28.5600     0.0000     0.0000    10.5175   104.8650    -1.0000    -1.5000     0.0000     0.0000     0.0000     0.0000    17.0000     8.0000     8.0000    17.0000     0.0000     0.0000   142.0306   -75.9388     0.0000    -4.2998    -2.9995    -1.8994    -0.6005     0.4003     1.8994     2.7994     3.8002    31.3400    22.1100    13.8400     6.4800    -5.6200   -10.4100   -14.3900   -16.8000     2.4315     4.9500     4.800
     24     1.1540    -0.0000     7.0000     0.1500      5.142     25.000  11001.000      5.000    96.9304   142.7102   -74.5796     0.4200    -1.0000    28.5600     0.0000     0.0000    10.5075   104.7453    -1.0000    -1.5000     0.0000     0.0000     0.0000     0.0000    17.0000     8.0000     8.0000    17.0000     0.0000     0.0000   142.0306   -75.9388     0.0000    -4.2998    -2.9995    -1.8994    -0.6005     0.4003     1.8994     2.7994     3.8002    31.3400    22.1100    13.8400     6.4800    -5.6200   -10.4100   -14.3900   -16.8000     2.4296     4.9500     4.800
     25     1.1520    -0.0000     7.0002     0.1500      5.003     23.000  11001.000      5.000    96.9304   142.7102   -74.5796     0.4200    -1.0000    28.5600     0.0000     0.0000    10.5000   104.6259    -1.0000    -1.5000     0.0000     0.0000     0.0000     0.0000    17.0000     8.0000     8.0000    17.0000     0.0000     0.0000   142.0306   -75.9388     0.0000    -4.2998    -2.9995    -1.8994    -0.6005     0.4003     1.8994     2.7994     3.8002    31.3400    22.1100    13.8400     6.4800    -5.6200   -10.4100   -14.3900   -16.8000     2.4276     4.9500     4.800
     26     1.1500    -0.0000     6.9998     0.1500      5.076     29.000  11001.000      5.000    96.9304   142.7102   -74.5796     0.4200    -1.0000    28.5600     0.0000     0.0000    10.4875   104.5067    -1.0000    -1.5000     0.0000     0.0000     0.0000     0.0000    17.0000     8.0000     8.0000    17.0000     0.0000     0.0000   142.0306   -75.9388     0.0000    -4.2998    -2.9995    -1.8994    -0.6005     0.4003     1.8994     2.7994     3.8002    31.3400    22.1100    13.8400     6.4800    -5.6200   -10.4100   -14.3900   -16.8000     2.4257     4.9500     4.800
     27     1.1480    -0.0000     7.0000     0.1500      5.109     22.000  11001.000      5.000    96.9304   142.7102   -74.5796     0.4200    -1.0000    28.5600     0.0000     0.0000    10.4800   104.3878    -1.0000    -1.5000     0.0000     0.0000     0.0000     0.0000    17.0000     8.0000     8.0000    17.0000     0.0000     0.0000   142.0306   -75.9388     0.0000    -4.2998    -2.9995    -1.8994    -0.6005     0.4003     1.8994     2.7994     3.8002    31.3400    22.1100    13.8400     6.4800    -5.6200   -10.4100   -14.3900   -16.8000     2.4237     4.9500     4.800
     28     1.1460    -0.0000     6.9999     0.1500      5.088     27.000  11001.000      5.000    96.9304   142.7102   -74.5796     0.4200    -1.0000    28.5600     0.0000     0.0000    10.4700   104.2692    -1.0000    -1.5000     0.0000     0.0000     0.0000     0.0000    17.0000     8.0000     8.0000    17.0000     0.0000     0.0000   142.0306   -75.9388     0.0000    -4.2998    -2.9995    -1.8994    -0.6005     0.4003     1.8994     2.7994     3.8002    31.3400    22.1100    13.8400     6.4800    -5.6200   -10.4100   -14.3900   -16.8000     2.4218     4.9500     4.800
     29     1.1439    -0.0000     7.0003     0.1500      5.072     22.000  11001.000      5.000    96.9304   142.7102   -74.5796     0.4200    -1.0000    28.5600     0.0000     0.0000    10.4650   104.1509    -1.0000    -1.5000     0.0000     0.0000     0.0000     0.0000    17.0000     8.0000     8.0000    17.0000     0.0000     0.0000   142.0306   -75.9388     0.0000    -4.2998    -2.9995    -1.8994    -0.6005     0.4003     1.8994     2.7994     3.8002    31.3400    22.1100    13.8400     6.4800    -5.6200   -10.4100   -14.3900   -16.8000     2.4198     4.9500     4.800
     30     1.1420    -0.0000     6.9998     0.1500      5.099     15.000  11001.000      5.000    96.9304   142.7102   -74.5796     0.4200    -1.0000    28.5600     0.0000     0.0000    10.4525   104.0328    -1.0000    -1.5000     0.0000     0.0000     0.0000     0.0000    17.0000     8.0000     8.0000    17.0000     0.0000     0.0000   142.0306   -75.9388     0.0000    -4.2998    -2.9995    -1.8994    -0.6005     0.4003     1.8994     2.7994     3.8002    31.3400    22.1100    13.8400     6.4800    -5.6200   -10.4100   -14.3900   -16.8000     2.4179     4.9500     4.800
     31     1.1400    -0.0000     7.0001     0.1500      5.039     23.000  11001.000      5.000    96.9304   142.7102   -74.5796     0.4200    -1.0000    28.5600     0.0000     0.0000    10.4475   103.9150    -1.0000    -1.5000     0.0000     0.0000     0.0000     0.0000    17.0000     8.0000     8.0000    17.0000     0.0000     0.0000   142.0306   -75.9388     0.0000    -4.2998    -2.9995    -1.8994    -0.6005     0.4003     1.8994     2.7994     3.8002    31.3400    22.1100    13.8400     6.4800    -5.6200   -10.4100   -14.3900   -16.8000     2.4159     4.9500     4.800
