# scan = 219
# date = 3/12/2025
# time = 2:35:45 PM
# proposal = 35030
# experiment = CTAX Instrumental resolution benchmarking
# experiment_number = 445
# command = scan h 1 k 0 l 7.5 6.5 0.01 e -0.2 preset mcu 5
# builtin_command = scan h 1 k 0 l 7.5 6.5 0.01 e -0.2 preset mcu 5
# users = Tao Hong, Tao Hong, Bing Li
# local_contact = Tao Hong
# scan_title = (10L) scan at E=-0.2 meV and hori-focusing
# monochromator = PG002
# analyzer = Pg002
# sense = -+-
# collimation = 48-40-40-120
# samplename = LaN
# sampletype = crystal
# samplemosaic = 30.000000
# latticeconstants = 5.058628,5.058628,24.728465,90.000000,90.000000,120.000000
# ubmatrix = -0.002928,0.001986,-0.040430,-0.228168,-0.119258,0.000500,-0.005924,0.194622,0.000719
# mode = 0
# plane_normal = 0.017452,-0.026173,0.999505
# ubconf = UB10Mar2025_114214AM.ini
# preset_type = normal
# preset_channel = mcu
# preset_value = 5.000000
# def_x = l
# def_y = detector
# col_headers =
#   Pt.          h          k          l          e       time   detector    monitor        mcu focal_length         m1         m2       marc     mtrans     mfocus   vti_temp  smpl_temp         s1         s2        sgl        sgu        bbb        bbl        bbr        bbt        bab        bal        bar        bat        stl        stu         a1         a2     afocus        qm1        qm2        qm3        qm4        qm5        qm6        qm7        qm8        xm1        xm2        xm3        xm4        xm5        xm6        xm7        xm8          q         ei         ef
      1     1.0000    -0.0000     7.5000    -0.2000      4.691     24.000  11001.000      5.000   100.5558   141.0625   -77.8750     0.4200    -1.0000    27.8400     0.0000     0.0000    15.6575   104.7159    -1.0000    -1.5000     0.0000     0.0000     0.0000     0.0000    17.0000     8.0000     8.0000    17.0000     0.0000     0.0000   142.0306   -75.9388     0.0000    -4.2998    -2.9995    -1.8994    -0.6005     0.4003     1.8994     2.7994     3.8002    31.3400    22.1100    13.8400     6.4800    -5.6200   -10.4100   -14.3900   -16.8000     2.3851     4.6000     4.800
      2     1.0000    -0.0000     7.4899    -0.2000      4.819     26.000  11001.000      5.000   100.5558   141.0625   -77.8750     0.4200    -1.0000    27.8400     0.0000     0.0000    15.5550   104.5895    -1.0000    -1.5000     0.0000     0.0000     0.0000     0.0000    17.0000     8.0000     8.0000    17.0000     0.0000     0.0000   142.0306   -75.9388     0.0000    -4.2998    -2.9995    -1.8994    -0.6005     0.4003     1.8994     2.7994     3.8002    31.3400    22.1100    13.8400     6.4800    -5.6200   -10.4100   -14.3900   -16.8000     2.3830     4.6000     4.800
      3     0.9999    -0.0000     7.4802    -0.2000      4.789     20.000  11001.000      5.000   100.5558   141.0625   -77.8750     0.4200    -1.0000    27.8400     0.0000     0.0000    15.4575   104.4634    -1.0000    -1.5000     0.0000     0.0000     0.0000     0.0000    17.0000     8.0000     8.0000    17.0000     0.0000     0.0000   142.0306   -75.9388     0.0000    -4.2998    -2.9995    -1.8994    -0.6005     0.4003     1.8994     2.7994     3.8002    31.3400    22.1100    13.8400     6.4800    -5.6200   -10.4100   -14.3900   -16.8000     2.3810     4.6000     4.800
      4     1.0000    -0.0000     7.4701    -0.2000      4.742     11.000  11001.000      5.000   100.5558   141.0625   -77.8750     0.4200    -1.0000    27.8400     0.0000     0.0000    15.3550   104.3375    -1.0000    -1.5000     0.0000     0.0000     0.0000     0.0000    17.0000     8.0000     8.0000    17.0000     0.0000     0.0000   142.0306   -75.9388     0.0000    -4.2998    -2.9995    -1.8994    -0.6005     0.4003     1.8994     2.7994     3.8002    31.3400    22.1100    13.8400     6.4800    -5.6200   -10.4100   -14.3900   -16.8000     2.3790     4.6000     4.800
      5     1.0000    -0.0000     7.4599    -0.2000      4.697     16.000  11001.000      5.000   100.5558   141.0625   -77.8750     0.4200    -1.0000    27.8400     0.0000     0.0000    15.2525   104.2118    -1.0000    -1.5000     0.0000     0.0000     0.0000     0.0000    17.0000     8.0000     8.0000    17.0000     0.0000     0.0000   142.0306   -75.9388     0.0000    -4.2998    -2.9995    -1.8994    -0.6005     0.4003     1.8994     2.7994     3.8002    31.3400    22.1100    13.8400     6.4800    -5.6200   -10.4100   -14.3900   -16.8000     2.3769     4.6000     4.800
      6     0.9999    -0.0000     7.4502    -0.2000      4.760     17.000  11001.000      5.000   100.5558   141.0625   -77.8750     0.4200    -1.0000    27.8400     0.0000     0.0000    15.1550   104.0864    -1.0000    -1.5000     0.0000     0.0000     0.0000     0.0000    17.0000     8.0000     8.0000    17.0000     0.0000     0.0000   142.0306   -75.9388     0.0000    -4.2998    -2.9995    -1.8994    -0.6005     0.4003     1.8994     2.7994     3.8002    31.3400    22.1100    13.8400     6.4800    -5.6200   -10.4100   -14.3900   -16.8000     2.3749     4.6000     4.800
      7     1.0000    -0.0000     7.4398    -0.2000      4.786     21.000  11001.000      5.000   100.5558   141.0625   -77.8750     0.4200    -1.0000    27.8400     0.0000     0.0000    15.0500   103.9612    -1.0000    -1.5000     0.0000     0.0000     0.0000     0.0000    17.0000     8.0000     8.0000    17.0000     0.0000     0.0000   142.0306   -75.9388     0.0000    -4.2998    -2.9995    -1.8994    -0.6005     0.4003     1.8994     2.7994     3.8002    31.3400    22.1100    13.8400     6.4800    -5.6200   -10.4100   -14.3900   -16.8000     2.3729     4.6000     4.800
      8     1.0000    -0.0000     7.4301    -0.2000      4.724     20.000  11001.000      5.000   100.5558   141.0625   -77.8750     0.4200    -1.0000    27.8400     0.0000     0.0000    14.9525   103.8363    -1.0000    -1.5000     0.0000     0.0000     0.0000     0.0000    17.0000     8.0000     8.0000    17.0000     0.0000     0.0000   142.0306   -75.9388     0.0000    -4.2998    -2.9995    -1.8994    -0.6005     0.4003     1.8994     2.7994     3.8002    31.3400    22.1100    13.8400     6.4800    -5.6200   -10.4100   -14.3900   -16.8000     2.3709     4.6000     4.800
      9     1.0000    -0.0000     7.4199    -0.2000      4.750     19.000  11001.000      5.000   100.5558   141.0625   -77.8750     0.4200    -1.0000    27.8400     0.0000     0.0000    14.8500   103.7116    -1.0000    -1.5000     0.0000     0.0000     0.0000     0.0000    17.0000     8.0000     8.0000    17.0000     0.0000     0.0000   142.0306   -75.9388     0.0000    -4.2998    -2.9995    -1.8994    -0.6005     0.4003     1.8994     2.7994     3.8002    31.3400    22.1100    13.8400     6.4800    -5.6200   -10.4100   -14.3900   -16.8000     2.3688     4.6000     4.800
     10     1.0000    -0.0000     7.4100    -0.2000      4.699     18.000  11001.000      5.000   100.5558   141.0625   -77.8750     0.4200    -1.0000    27.8400     0.0000     0.0000    14.7500   103.5872    -1.0000    -1.5000     0.0000     0.0000     0.0000     0.0000    17.0000     8.0000     8.0000    17.0000     0.0000     0.0000   142.0306   -75.9388     0.0000    -4.2998    -2.9995    -1.8994    -0.6005     0.4003     1.8994     2.7994     3.8002    31.3400    22.1100    13.8400     6.4800    -5.6200   -10.4100   -14.3900   -16.8000     2.3668     4.6000     4.800
     11     1.0000    -0.0000     7.4000    -0.2000      4.655     25.000  11001.000      5.000   100.5558   141.0625   -77.8750     0.4200    -1.0000    27.8400     0.0000     0.0000    14.6500   103.4629    -1.0000    -1.5000     0.0000     0.0000     0.0000     0.0000    17.0000     8.0000     8.0000    17.0000     0.0000     0.0000   142.0306   -75.9388     0.0000    -4.2998    -2.9995    -1.8994    -0.6005     0.4003     1.8994     2.7994     3.8002    31.3400    22.1100    13.8400     6.4800    -5.6200   -10.4100   -14.3900   -16.8000     2.3648     4.6000     4.800
     12     1.0000    -0.0000     7.3901    -0.2000      4.729     17.000  11001.000      5.000   100.5558   141.0625   -77.8750     0.4200    -1.0000    27.8400     0.0000     0.0000    14.5500   103.3389    -1.0000    -1.5000     0.0000     0.0000     0.0000     0.0000    17.0000     8.0000     8.0000    17.0000     0.0000     0.0000   142.0306   -75.9388     0.0000    -4.2998    -2.9995    -1.8994    -0.6005     0.4003     1.8994     2.7994     3.8002    31.3400    22.1100    13.8400     6.4800    -5.6200   -10.4100   -14.3900   -16.8000     2.3628     4.6000     4.800
     13     1.0000    -0.0000     7.3801    -0.2000      4.764     14.000  11001.000      5.000   100.5558   141.0625   -77.8750     0.4200    -1.0000    27.8400     0.0000     0.0000    14.4500   103.2151    -1.0000    -1.5000     0.0000     0.0000     0.0000     0.0000    17.0000     8.0000     8.0000    17.0000     0.0000     0.0000   142.0306   -75.9388     0.0000    -4.2998    -2.9995    -1.8994    -0.6005     0.4003     1.8994     2.7994     3.8002    31.3400    22.1100    13.8400     6.4800    -5.6200   -10.4100   -14.3900   -16.8000     2.3608     4.6000     4.800
     14     1.0000    -0.0000     7.3699    -0.2000      4.792     27.000  11001.000      5.000   100.5558   141.0625   -77.8750     0.4200    -1.0000    27.8400     0.0000     0.0000    14.3475   103.0916    -1.0000    -1.5000     0.0000     0.0000     0.0000     0.0000    17.0000     8.0000     8.0000    17.0000     0.0000     0.0000   142.0306   -75.9388     0.0000    -4.2998    -2.9995    -1.8994    -0.6005     0.4003     1.8994     2.7994     3.8002    31.3400    22.1100    13.8400     6.4800    -5.6200   -10.4100   -14.3900   -16.8000     2.3588     4.6000     4.800
     15     1.0000    -0.0000     7.3602    -0.2000      4.647     20.000  11001.000      5.000   100.5558   141.0625   -77.8750     0.4200    -1.0000    27.8400     0.0000     0.0000    14.2500   102.9683    -1.0000    -1.5000     0.0000     0.0000     0.0000     0.0000    17.0000     8.0000     8.0000    17.0000     0.0000     0.0000   142.0306   -75.9388     0.0000    -4.2998    -2.9995    -1.8994    -0.6005     0.4003     1.8994     2.7994     3.8002    31.3400    22.1100    13.8400     6.4800    -5.6200   -10.4100   -14.3900   -16.8000     2.3567     4.6000     4.800
     16     1.0000    -0.0000     7.3502    -0.2000      4.798     21.000  11001.000      5.000   100.5558   141.0625   -77.8750     0.4200    -1.0000    27.8400     0.0000     0.0000    14.1500   102.8452    -1.0000    -1.5000     0.0000     0.0000     0.0000     0.0000    17.0000     8.0000     8.0000    17.0000     0.0000     0.0000   142.0306   -75.9388     0.0000    -4.2998    -2.9995    -1.8994    -0.6005     0.4003     1.8994     2.7994     3.8002    31.3400    22.1100    13.8400     6.4800    -5.6200   -10.4100   -14.3900   -16.8000     2.3547     4.6000     4.800
     17     1.0000    -0.0000     7.3400    -0.2000      4.722     19.000  11001.000      5.000   100.5558   141.0625   -77.8750     0.4200    -1.0000    27.8400     0.0000     0.0000    14.0475   102.7224    -1.0000    -1.5000     0.0000     0.0000     0.0000     0.0000    17.0000     8.0000     8.0000    17.0000     0.0000     0.0000   142.0306   -75.9388     0.0000    -4.2998    -2.9995    -1.8994    -0.6005     0.4003     1.8994     2.7994     3.8002    31.3400    22.1100    13.8400     6.4800    -5.6200   -10.4100   -14.3900   -16.8000     2.3527     4.6000     4.800
     18     1.0000    -0.0000     7.3300    -0.2000      4.779     17.000  11001.000      5.000   100.5558   141.0625   -77.8750     0.4200    -1.0000    27.8400     0.0000     0.0000    13.9475   102.5997    -1.0000    -1.5000     0.0000     0.0000     0.0000     0.0000    17.0000     8.0000     8.0000    17.0000     0.0000     0.0000   142.0306   -75.9388     0.0000    -4.2998    -2.9995    -1.8994    -0.6005     0.4003     1.8994     2.7994     3.8002    31.3400    22.1100    13.8400     6.4800    -5.6200   -10.4100   -14.3900   -16.8000     2.3507     4.6000     4.800
     19     1.0000    -0.0000     7.3200    -0.2000      4.757     24.000  11001.000      5.000   100.5558   141.0625   -77.8750     0.4200    -1.0000    27.8400     0.0000     0.0000    13.8475   102.4773    -1.0000    -1.5000     0.0000     0.0000     0.0000     0.0000    17.0000     8.0000     8.0000    17.0000     0.0000     0.0000   142.0306   -75.9388     0.0000    -4.2998    -2.9995    -1.8994    -0.6005     0.4003     1.8994     2.7994     3.8002    31.3400    22.1100    13.8400     6.4800    -5.6200   -10.4100   -14.3900   -16.8000     2.3487     4.6000     4.800
     20     0.9999    -0.0000     7.3102    -0.2000      4.739     18.000  11001.000      5.000   100.5558   141.0625   -77.8750     0.4200    -1.0000    27.8400     0.0000     0.0000    13.7500   102.3551    -1.0000    -1.5000     0.0000     0.0000     0.0000     0.0000    17.0000     8.0000     8.0000    17.0000     0.0000     0.0000   142.0306   -75.9388     0.0000    -4.2998    -2.9995    -1.8994    -0.6005     0.4003     1.8994     2.7994     3.8002    31.3400    22.1100    13.8400     6.4800    -5.6200   -10.4100   -14.3900   -16.8000     2.3467     4.6000     4.800
     21     1.0000    -0.0000     7.3000    -0.2000      4.733     27.000  11001.000      5.000   100.5558   141.0625   -77.8750     0.4200    -1.0000    27.8400     0.0000     0.0000    13.6475   102.2332    -1.0000    -1.5000     0.0000     0.0000     0.0000     0.0000    17.0000     8.0000     8.0000    17.0000     0.0000     0.0000   142.0306   -75.9388     0.0000    -4.2998    -2.9995    -1.8994    -0.6005     0.4003     1.8994     2.7994     3.8002    31.3400    22.1100    13.8400     6.4800    -5.6200   -10.4100   -14.3900   -16.8000     2.3447     4.6000     4.800
     22     1.0000    -0.0000     7.2900    -0.2000      4.760     13.000  11001.000      5.000   100.5558   141.0625   -77.8750     0.4200    -1.0000    27.8400     0.0000     0.0000    13.5475   102.1114    -1.0000    -1.5000     0.0000     0.0000     0.0000     0.0000    17.0000     8.0000     8.0000    17.0000     0.0000     0.0000   142.0306   -75.9388     0.0000    -4.2998    -2.9995    -1.8994    -0.6005     0.4003     1.8994     2.7994     3.8002    31.3400    22.1100    13.8400     6.4800    -5.6200   -10.4100   -14.3900   -16.8000     2.3426     4.6000     4.800
     23     1.0000    -0.0000     7.2800    -0.2000      4.753     15.000  11001.000      5.000   100.5558   141.0625   -77.8750     0.4200    -1.0000    27.8400     0.0000     0.0000    13.4475   101.9899    -1.0000    -1.5000     0.0000     0.0000     0.0000     0.0000    17.0000     8.0000     8.0000    17.0000     0.0000     0.0000   142.0306   -75.9388     0.0000    -4.2998    -2.9995    -1.8994    -0.6005     0.4003     1.8994     2.7994     3.8002    31.3400    22.1100    13.8400     6.4800    -5.6200   -10.4100   -14.3900   -16.8000     2.3406     4.6000     4.800
     24     1.0000    -0.0000     7.2700    -0.2000      4.752     16.000  11001.000      5.000   100.5558   141.0625   -77.8750     0.4200    -1.0000    27.8400     0.0000     0.0000    13.3475   101.8686    -1.0000    -1.5000     0.0000     0.0000     0.0000     0.0000    17.0000     8.0000     8.0000    17.0000     0.0000     0.0000   142.0306   -75.9388     0.0000    -4.2998    -2.9995    -1.8994    -0.6005     0.4003     1.8994     2.7994     3.8002    31.3400    22.1100    13.8400     6.4800    -5.6200   -10.4100   -14.3900   -16.8000     2.3386     4.6000     4.800
     25     1.0000    -0.0000     7.2602    -0.2000      4.662     23.000  11001.000      5.000   100.5558   141.0625   -77.8750     0.4200    -1.0000    27.8400     0.0000     0.0000    13.2500   101.7476    -1.0000    -1.5000     0.0000     0.0000     0.0000     0.0000    17.0000     8.0000     8.0000    17.0000     0.0000     0.0000   142.0306   -75.9388     0.0000    -4.2998    -2.9995    -1.8994    -0.6005     0.4003     1.8994     2.7994     3.8002    31.3400    22.1100    13.8400     6.4800    -5.6200   -10.4100   -14.3900   -16.8000     2.3366     4.6000     4.800
     26     1.0000    -0.0000     7.2499    -0.2000      4.752     20.000  11001.000      5.000   100.5558   141.0625   -77.8750     0.4200    -1.0000    27.8400     0.0000     0.0000    13.1475   101.6267    -1.0000    -1.5000     0.0000     0.0000     0.0000     0.0000    17.0000     8.0000     8.0000    17.0000     0.0000     0.0000   142.0306   -75.9388     0.0000    -4.2998    -2.9995    -1.8994    -0.6005     0.4003     1.8994     2.7994     3.8002    31.3400    22.1100    13.8400     6.4800    -5.6200   -10.4100   -14.3900   -16.8000     2.3346     4.6000     4.800
     27     1.0001    -0.0000     7.2396    -0.2000      4.718     29.000  11001.000      5.000   100.5558   141.0625   -77.8750     0.4200    -1.0000    27.8400     0.0000     0.0000    13.0450   101.5061    -1.0000    -1.5000     0.0000     0.0000     0.0000     0.0000    17.0000     8.0000     8.0000    17.0000     0.0000     0.0000   142.0306   -75.9388     0.0000    -4.2998    -2.9995    -1.8994    -0.6005     0.4003     1.8994     2.7994     3.8002    31.3400    22.1100    13.8400     6.4800    -5.6200   -10.4100   -14.3900   -16.8000     2.3326     4.6000     4.800
     28     1.0000    -0.0000     7.2301    -0.2000      4.722     17.000  11001.000      5.000   100.5558   141.0625   -77.8750     0.4200    -1.0000    27.8400     0.0000     0.0000    12.9500   101.3857    -1.0000    -1.5000     0.0000     0.0000     0.0000     0.0000    17.0000     8.0000     8.0000    17.0000     0.0000     0.0000   142.0306   -75.9388     0.0000    -4.2998    -2.9995    -1.8994    -0.6005     0.4003     1.8994     2.7994     3.8002    31.3400    22.1100    13.8400     6.4800    -5.6200   -10.4100   -14.3900   -16.8000     2.3306     4.6000     4.800
     29     1.0000    -0.0000     7.2201    -0.2000      4.731     28.000  11001.000      5.000   100.5558   141.0625   -77.8750     0.4200    -1.0000    27.8400     0.0000     0.0000    12.8500   101.2655    -1.0000    -1.5000     0.0000     0.0000     0.0000     0.0000    17.0000     8.0000     8.0000    17.0000     0.0000     0.0000   142.0306   -75.9388     0.0000    -4.2998    -2.9995    -1.8994    -0.6005     0.4003     1.8994     2.7994     3.8002    31.3400    22.1100    13.8400     6.4800    -5.6200   -10.4100   -14.3900   -16.8000     2.3286     4.6000     4.800
     30     1.0000    -0.0000     7.2100    -0.2000      4.687     41.000  11001.000      5.000   100.5558   141.0625   -77.8750     0.4200    -1.0000    27.8400     0.0000     0.0000    12.7500   101.1455    -1.0000    -1.5000     0.0000     0.0000     0.0000     0.0000    17.0000     8.0000     8.0000    17.0000     0.0000     0.0000   142.0306   -75.9388     0.0000    -4.2998    -2.9995    -1.8994    -0.6005     0.4003     1.8994     2.7994     3.8002    31.3400    22.1100    13.8400     6.4800    -5.6200   -10.4100   -14.3900   -16.8000     2.3266     4.6000     4.800
     31     1.0000    -0.0000     7.2000    -0.2000      4.739     46.000  11001.000      5.000   100.5558   141.0625   -77.8750     0.4200    -1.0000    27.8400     0.0000     0.0000    12.6500   101.0258    -1.0000    -1.5000     0.0000     0.0000     0.0000     0.0000    17.0000     8.0000     8.0000    17.0000     0.0000     0.0000   142.0306   -75.9388     0.0000    -4.2998    -2.9995    -1.8994    -0.6005     0.4003     1.8994     2.7994     3.8002    31.3400    22.1100    13.8400     6.4800    -5.6200   -10.4100   -14.3900   -16.8000     2.3246     4.6000     4.800
