# scan = 186
# date = 3/12/2025
# time = 2:22:33 AM
# proposal = 35030
# experiment = CTAX Instrumental resolution benchmarking
# experiment_number = 445
# command = scan h 1 k 0 l 4 e -0.2 0.2 0.01 preset mcu 10
# builtin_command = scan h 1 k 0 l 4 e -0.2 0.2 0.01 preset mcu 10
# users = Tao Hong, Tao Hong, Bing Li
# local_contact = Tao Hong
# scan_title = (104) scans-hori-focusing
# monochromator = PG002
# analyzer = Pg002
# sense = -+-
# collimation = 48-40-40-120
# samplename = LaN
# sampletype = crystal
# samplemosaic = 30.000000
# latticeconstants = 5.058628,5.058628,24.728465,90.000000,90.000000,120.000000
# ubmatrix = -0.002928,0.001986,-0.040430,-0.228168,-0.119258,0.000500,-0.005924,0.194622,0.000719
# mode = 0
# plane_normal = 0.017452,-0.026173,0.999505
# ubconf = UB10Mar2025_114214AM.ini
# preset_type = normal
# preset_channel = mcu
# preset_value = 10.000000
# def_x = e
# def_y = detector
# col_headers =
#   Pt.          h          k          l          e       time   detector    monitor        mcu focal_length         m1         m2       marc     mtrans     mfocus   vti_temp  smpl_temp         s1         s2        sgl        sgu        bbb        bbl        bbr        bbt        bab        bal        bar        bat        stl        stu         a1         a2     afocus        qm1        qm2        qm3        qm4        qm5        qm6        qm7        qm8        xm1        xm2        xm3        xm4        xm5        xm6        xm7        xm8          q         ei         ef
      1     1.0000     0.0000     4.0002    -0.2000      9.515     40.000  22001.000     10.000   100.5558   141.0625   -77.8750     0.4200    -1.0000    27.8400     0.0000     0.0000   -19.0875    71.4020    -1.0000    -1.5000     0.0000     0.0000     0.0000     0.0000    17.0000     8.0000     8.0000    17.0000     0.0000     0.0000   142.0306   -75.9388     0.0000    -4.2998    -2.9995    -1.8994    -0.6005     0.4003     1.8994     2.7994     3.8002    31.3400    22.1100    13.8400     6.4800    -5.6200   -10.4100   -14.3900   -16.8000     1.7578     4.6000     4.800
      2     1.0000     0.0000     4.0001    -0.1900      9.546     43.000  22001.000     10.000   100.4515   141.1127   -77.7746     0.4200    -1.0000    27.8600     0.0000     0.0000   -19.0675    71.3587    -1.0000    -1.5000     0.0000     0.0000     0.0000     0.0000    17.0000     8.0000     8.0000    17.0000     0.0000     0.0000   142.0306   -75.9388     0.0000    -4.2998    -2.9995    -1.8994    -0.6005     0.4003     1.8994     2.7994     3.8002    31.3400    22.1100    13.8400     6.4800    -5.6200   -10.4100   -14.3900   -16.8000     1.7578     4.6100     4.800
      3     1.0000     0.0000     4.0000    -0.1800      9.462     42.000  22001.000     10.000   100.3473   141.1627   -77.6746     0.4200    -1.0000    27.8800     0.0000     0.0000   -19.0475    71.3154    -1.0000    -1.5000     0.0000     0.0000     0.0000     0.0000    17.0000     8.0000     8.0000    17.0000     0.0000     0.0000   142.0306   -75.9388     0.0000    -4.2998    -2.9995    -1.8994    -0.6005     0.4003     1.8994     2.7994     3.8002    31.3400    22.1100    13.8400     6.4800    -5.6200   -10.4100   -14.3900   -16.8000     1.7578     4.6200     4.800
      4     1.0000    -0.0000     4.0001    -0.1700      9.427     35.000  22001.000     10.000   100.2226   141.2125   -77.5749     0.4200    -1.0000    27.9040     0.0000     0.0000   -19.0250    71.2722    -1.0000    -1.5000     0.0000     0.0000     0.0000     0.0000    17.0000     8.0000     8.0000    17.0000     0.0000     0.0000   142.0306   -75.9388     0.0000    -4.2998    -2.9995    -1.8994    -0.6005     0.4003     1.8994     2.7994     3.8002    31.3400    22.1100    13.8400     6.4800    -5.6200   -10.4100   -14.3900   -16.8000     1.7578     4.6300     4.800
      5     1.0000     0.0000     4.0000    -0.1600      9.485     42.000  22001.000     10.000   100.1190   141.2622   -77.4757     0.4200    -1.0000    27.9240     0.0000     0.0000   -19.0050    71.2290    -1.0000    -1.5000     0.0000     0.0000     0.0000     0.0000    17.0000     8.0000     8.0000    17.0000     0.0000     0.0000   142.0306   -75.9388     0.0000    -4.2998    -2.9995    -1.8994    -0.6005     0.4003     1.8994     2.7994     3.8002    31.3400    22.1100    13.8400     6.4800    -5.6200   -10.4100   -14.3900   -16.8000     1.7578     4.6400     4.800
      6     1.0000    -0.0000     3.9999    -0.1500      9.451     49.000  22001.000     10.000   100.0155   141.3116   -77.3768     0.4200    -1.0000    27.9440     0.0000     0.0000   -18.9850    71.1860    -1.0000    -1.5000     0.0000     0.0000     0.0000     0.0000    17.0000     8.0000     8.0000    17.0000     0.0000     0.0000   142.0306   -75.9388     0.0000    -4.2998    -2.9995    -1.8994    -0.6005     0.4003     1.8994     2.7994     3.8002    31.3400    22.1100    13.8400     6.4800    -5.6200   -10.4100   -14.3900   -16.8000     1.7578     4.6500     4.800
      7     1.0000    -0.0000     3.9998    -0.1400      9.515     55.000  22001.000     10.000    99.9123   141.3608   -77.2783     0.4200    -1.0000    27.9640     0.0000     0.0000   -18.9650    71.1429    -1.0000    -1.5000     0.0000     0.0000     0.0000     0.0000    17.0000     8.0000     8.0000    17.0000     0.0000     0.0000   142.0306   -75.9388     0.0000    -4.2998    -2.9995    -1.8994    -0.6005     0.4003     1.8994     2.7994     3.8002    31.3400    22.1100    13.8400     6.4800    -5.6200   -10.4100   -14.3900   -16.8000     1.7578     4.6600     4.800
      8     1.0000    -0.0000     4.0000    -0.1300      9.404     68.000  22001.000     10.000    99.8092   141.4099   -77.1802     0.4200    -1.0000    27.9840     0.0000     0.0000   -18.9425    71.0999    -1.0000    -1.5000     0.0000     0.0000     0.0000     0.0000    17.0000     8.0000     8.0000    17.0000     0.0000     0.0000   142.0306   -75.9388     0.0000    -4.2998    -2.9995    -1.8994    -0.6005     0.4003     1.8994     2.7994     3.8002    31.3400    22.1100    13.8400     6.4800    -5.6200   -10.4100   -14.3900   -16.8000     1.7578     4.6700     4.800
      9     1.0000     0.0000     4.0001    -0.1200      9.493     79.000  22001.000     10.000    99.6859   141.4588   -77.0825     0.4200    -1.0000    28.0080     0.0000     0.0000   -18.9200    71.0570    -1.0000    -1.5000     0.0000     0.0000     0.0000     0.0000    17.0000     8.0000     8.0000    17.0000     0.0000     0.0000   142.0306   -75.9388     0.0000    -4.2998    -2.9995    -1.8994    -0.6005     0.4003     1.8994     2.7994     3.8002    31.3400    22.1100    13.8400     6.4800    -5.6200   -10.4100   -14.3900   -16.8000     1.7578     4.6800     4.800
     10     1.0000    -0.0000     4.0003    -0.1100      9.521     60.000  22001.000     10.000    99.5833   141.5074   -76.9852     0.4200    -1.0000    28.0280     0.0000     0.0000   -18.8975    71.0141    -1.0000    -1.5000     0.0000     0.0000     0.0000     0.0000    17.0000     8.0000     8.0000    17.0000     0.0000     0.0000   142.0306   -75.9388     0.0000    -4.2998    -2.9995    -1.8994    -0.6005     0.4003     1.8994     2.7994     3.8002    31.3400    22.1100    13.8400     6.4800    -5.6200   -10.4100   -14.3900   -16.8000     1.7578     4.6900     4.800
     11     1.0000    -0.0000     3.9999    -0.1000      9.421     85.000  22001.000     10.000    99.4809   141.5559   -76.8882     0.4200    -1.0000    28.0480     0.0000     0.0000   -18.8800    70.9713    -1.0000    -1.5000     0.0000     0.0000     0.0000     0.0000    17.0000     8.0000     8.0000    17.0000     0.0000     0.0000   142.0306   -75.9388     0.0000    -4.2998    -2.9995    -1.8994    -0.6005     0.4003     1.8994     2.7994     3.8002    31.3400    22.1100    13.8400     6.4800    -5.6200   -10.4100   -14.3900   -16.8000     1.7578     4.7000     4.800
     12     1.0000    -0.0000     4.0001    -0.0900      9.458     84.000  22001.000     10.000    99.3788   141.6042   -76.7916     0.4200    -1.0000    28.0680     0.0000     0.0000   -18.8575    70.9286    -1.0000    -1.5000     0.0000     0.0000     0.0000     0.0000    17.0000     8.0000     8.0000    17.0000     0.0000     0.0000   142.0306   -75.9388     0.0000    -4.2998    -2.9995    -1.8994    -0.6005     0.4003     1.8994     2.7994     3.8002    31.3400    22.1100    13.8400     6.4800    -5.6200   -10.4100   -14.3900   -16.8000     1.7578     4.7100     4.800
     13     1.0000    -0.0000     4.0000    -0.0800      9.544     67.000  22001.000     10.000    99.2768   141.6523   -76.6954     0.4200    -1.0000    28.0880     0.0000     0.0000   -18.8375    70.8859    -1.0000    -1.5000     0.0000     0.0000     0.0000     0.0000    17.0000     8.0000     8.0000    17.0000     0.0000     0.0000   142.0306   -75.9388     0.0000    -4.2998    -2.9995    -1.8994    -0.6005     0.4003     1.8994     2.7994     3.8002    31.3400    22.1100    13.8400     6.4800    -5.6200   -10.4100   -14.3900   -16.8000     1.7578     4.7200     4.800
     14     1.0000     0.0000     4.0001    -0.0700      9.431     94.000  22001.000     10.000    99.1548   141.7002   -76.5996     0.4200    -1.0000    28.1120     0.0000     0.0000   -18.8150    70.8432    -1.0000    -1.5000     0.0000     0.0000     0.0000     0.0000    17.0000     8.0000     8.0000    17.0000     0.0000     0.0000   142.0306   -75.9388     0.0000    -4.2998    -2.9995    -1.8994    -0.6005     0.4003     1.8994     2.7994     3.8002    31.3400    22.1100    13.8400     6.4800    -5.6200   -10.4100   -14.3900   -16.8000     1.7578     4.7300     4.800
     15     1.0000    -0.0000     4.0003    -0.0600      9.326     85.000  22001.000     10.000    99.0533   141.7480   -76.5041     0.4200    -1.0000    28.1320     0.0000     0.0000   -18.7925    70.8007    -1.0000    -1.5000     0.0000     0.0000     0.0000     0.0000    17.0000     8.0000     8.0000    17.0000     0.0000     0.0000   142.0306   -75.9388     0.0000    -4.2998    -2.9995    -1.8994    -0.6005     0.4003     1.8994     2.7994     3.8002    31.3400    22.1100    13.8400     6.4800    -5.6200   -10.4100   -14.3900   -16.8000     1.7578     4.7400     4.800
     16     1.0000    -0.0000     4.0002    -0.0500      9.423     83.000  22001.000     10.000    98.9520   141.7955   -76.4090     0.4200    -1.0000    28.1520     0.0000     0.0000   -18.7725    70.7582    -1.0000    -1.5000     0.0000     0.0000     0.0000     0.0000    17.0000     8.0000     8.0000    17.0000     0.0000     0.0000   142.0306   -75.9388     0.0000    -4.2998    -2.9995    -1.8994    -0.6005     0.4003     1.8994     2.7994     3.8002    31.3400    22.1100    13.8400     6.4800    -5.6200   -10.4100   -14.3900   -16.8000     1.7578     4.7500     4.800
     17     1.0000    -0.0000     4.0003    -0.0400      9.425    130.000  22001.000     10.000    98.8510   141.8429   -76.3142     0.4200    -1.0000    28.1720     0.0000     0.0000   -18.7500    70.7157    -1.0000    -1.5000     0.0000     0.0000     0.0000     0.0000    17.0000     8.0000     8.0000    17.0000     0.0000     0.0000   142.0306   -75.9388     0.0000    -4.2998    -2.9995    -1.8994    -0.6005     0.4003     1.8994     2.7994     3.8002    31.3400    22.1100    13.8400     6.4800    -5.6200   -10.4100   -14.3900   -16.8000     1.7578     4.7600     4.800
     18     1.0000     0.0000     4.0000    -0.0300      9.502    171.000  22001.000     10.000    98.7501   141.8901   -76.2198     0.4200    -1.0000    28.1920     0.0000     0.0000   -18.7325    70.6733    -1.0000    -1.5000     0.0000     0.0000     0.0000     0.0000    17.0000     8.0000     8.0000    17.0000     0.0000     0.0000   142.0306   -75.9388     0.0000    -4.2998    -2.9995    -1.8994    -0.6005     0.4003     1.8994     2.7994     3.8002    31.3400    22.1100    13.8400     6.4800    -5.6200   -10.4100   -14.3900   -16.8000     1.7578     4.7700     4.800
     19     1.0000    -0.0000     4.0001    -0.0200      9.420    222.000  22001.000     10.000    98.6495   141.9371   -76.1258     0.4200    -1.0000    28.2120     0.0000     0.0000   -18.7100    70.6309    -1.0000    -1.5000     0.0000     0.0000     0.0000     0.0000    17.0000     8.0000     8.0000    17.0000     0.0000     0.0000   142.0306   -75.9388     0.0000    -4.2998    -2.9995    -1.8994    -0.6005     0.4003     1.8994     2.7994     3.8002    31.3400    22.1100    13.8400     6.4800    -5.6200   -10.4100   -14.3900   -16.8000     1.7578     4.7800     4.800
     20     1.0000    -0.0000     4.0000    -0.0100      9.357    313.000  22001.000     10.000    98.5490   141.9840   -76.0321     0.4200    -1.0000    28.2320     0.0000     0.0000   -18.6900    70.5886    -1.0000    -1.5000     0.0000     0.0000     0.0000     0.0000    17.0000     8.0000     8.0000    17.0000     0.0000     0.0000   142.0306   -75.9388     0.0000    -4.2998    -2.9995    -1.8994    -0.6005     0.4003     1.8994     2.7994     3.8002    31.3400    22.1100    13.8400     6.4800    -5.6200   -10.4100   -14.3900   -16.8000     1.7578     4.7900     4.800
     21     1.0000    -0.0000     4.0001     0.0000      9.353    339.000  22001.000     10.000    98.4288   142.0306   -75.9387     0.4200    -1.0000    28.2560     0.0000     0.0000   -18.6675    70.5464    -1.0000    -1.5000     0.0000     0.0000     0.0000     0.0000    17.0000     8.0000     8.0000    17.0000     0.0000     0.0000   142.0306   -75.9388     0.0000    -4.2998    -2.9995    -1.8994    -0.6005     0.4003     1.8994     2.7994     3.8002    31.3400    22.1100    13.8400     6.4800    -5.6200   -10.4100   -14.3900   -16.8000     1.7578     4.8000     4.800
     22     1.0000    -0.0000     4.0000     0.0100      9.402    373.000  22001.000     10.000    98.3288   142.0771   -75.8458     0.4200    -1.0000    28.2760     0.0000     0.0000   -18.6475    70.5042    -1.0000    -1.5000     0.0000     0.0000     0.0000     0.0000    17.0000     8.0000     8.0000    17.0000     0.0000     0.0000   142.0306   -75.9388     0.0000    -4.2998    -2.9995    -1.8994    -0.6005     0.4003     1.8994     2.7994     3.8002    31.3400    22.1100    13.8400     6.4800    -5.6200   -10.4100   -14.3900   -16.8000     1.7578     4.8100     4.800
     23     1.0000    -0.0000     4.0002     0.0200      9.351    271.000  22001.000     10.000    98.2290   142.1234   -75.7531     0.4200    -1.0000    28.2960     0.0000     0.0000   -18.6250    70.4620    -1.0000    -1.5000     0.0000     0.0000     0.0000     0.0000    17.0000     8.0000     8.0000    17.0000     0.0000     0.0000   142.0306   -75.9388     0.0000    -4.2998    -2.9995    -1.8994    -0.6005     0.4003     1.8994     2.7994     3.8002    31.3400    22.1100    13.8400     6.4800    -5.6200   -10.4100   -14.3900   -16.8000     1.7578     4.8200     4.800
     24     1.0000    -0.0000     4.0001     0.0300      9.414    242.000  22001.000     10.000    98.1294   142.1696   -75.6608     0.4200    -1.0000    28.3160     0.0000     0.0000   -18.6050    70.4200    -1.0000    -1.5000     0.0000     0.0000     0.0000     0.0000    17.0000     8.0000     8.0000    17.0000     0.0000     0.0000   142.0306   -75.9388     0.0000    -4.2998    -2.9995    -1.8994    -0.6005     0.4003     1.8994     2.7994     3.8002    31.3400    22.1100    13.8400     6.4800    -5.6200   -10.4100   -14.3900   -16.8000     1.7578     4.8300     4.800
     25     1.0000    -0.0000     3.9999     0.0400      9.416    162.000  22001.000     10.000    98.0300   142.2156   -75.5689     0.4200    -1.0000    28.3360     0.0000     0.0000   -18.5850    70.3780    -1.0000    -1.5000     0.0000     0.0000     0.0000     0.0000    17.0000     8.0000     8.0000    17.0000     0.0000     0.0000   142.0306   -75.9388     0.0000    -4.2998    -2.9995    -1.8994    -0.6005     0.4003     1.8994     2.7994     3.8002    31.3400    22.1100    13.8400     6.4800    -5.6200   -10.4100   -14.3900   -16.8000     1.7578     4.8400     4.800
     26     1.0000    -0.0000     3.9998     0.0500      9.403     95.000  22001.000     10.000    97.9308   142.2614   -75.4773     0.4200    -1.0000    28.3560     0.0000     0.0000   -18.5650    70.3360    -1.0000    -1.5000     0.0000     0.0000     0.0000     0.0000    17.0000     8.0000     8.0000    17.0000     0.0000     0.0000   142.0306   -75.9388     0.0000    -4.2998    -2.9995    -1.8994    -0.6005     0.4003     1.8994     2.7994     3.8002    31.3400    22.1100    13.8400     6.4800    -5.6200   -10.4100   -14.3900   -16.8000     1.7578     4.8500     4.800
     27     1.0000    -0.0000     4.0000     0.0600      9.505    105.000  22001.000     10.000    97.8318   142.3070   -75.3860     0.4200    -1.0000    28.3760     0.0000     0.0000   -18.5425    70.2940    -1.0000    -1.5000     0.0000     0.0000     0.0000     0.0000    17.0000     8.0000     8.0000    17.0000     0.0000     0.0000   142.0306   -75.9388     0.0000    -4.2998    -2.9995    -1.8994    -0.6005     0.4003     1.8994     2.7994     3.8002    31.3400    22.1100    13.8400     6.4800    -5.6200   -10.4100   -14.3900   -16.8000     1.7578     4.8600     4.800
     28     1.0000    -0.0000     4.0001     0.0700      9.566     84.000  22001.000     10.000    97.7330   142.3524   -75.2951     0.4200    -1.0000    28.3960     0.0000     0.0000   -18.5200    70.2522    -1.0000    -1.5000     0.0000     0.0000     0.0000     0.0000    17.0000     8.0000     8.0000    17.0000     0.0000     0.0000   142.0306   -75.9388     0.0000    -4.2998    -2.9995    -1.8994    -0.6005     0.4003     1.8994     2.7994     3.8002    31.3400    22.1100    13.8400     6.4800    -5.6200   -10.4100   -14.3900   -16.8000     1.7578     4.8700     4.800
     29     1.0000     0.0000     4.0000     0.0800      9.728     87.000  22001.000     10.000    97.6344   142.3978   -75.2045     0.4200    -1.0000    28.4160     0.0000     0.0000   -18.5000    70.2104    -1.0000    -1.5000     0.0000     0.0000     0.0000     0.0000    17.0000     8.0000     8.0000    17.0000     0.0000     0.0000   142.0306   -75.9388     0.0000    -4.2998    -2.9995    -1.8994    -0.6005     0.4003     1.8994     2.7994     3.8002    31.3400    22.1100    13.8400     6.4800    -5.6200   -10.4100   -14.3900   -16.8000     1.7578     4.8800     4.800
     30     1.0000    -0.0000     3.9999     0.0900      9.686     67.000  22001.000     10.000    97.5360   142.4429   -75.1142     0.4200    -1.0000    28.4360     0.0000     0.0000   -18.4800    70.1686    -1.0000    -1.5000     0.0000     0.0000     0.0000     0.0000    17.0000     8.0000     8.0000    17.0000     0.0000     0.0000   142.0306   -75.9388     0.0000    -4.2998    -2.9995    -1.8994    -0.6005     0.4003     1.8994     2.7994     3.8002    31.3400    22.1100    13.8400     6.4800    -5.6200   -10.4100   -14.3900   -16.8000     1.7578     4.8900     4.800
     31     1.0000    -0.0000     4.0000     0.1000      9.708     71.000  22001.000     10.000    97.4378   142.4878   -75.0243     0.4200    -1.0000    28.4560     0.0000     0.0000   -18.4575    70.1269    -1.0000    -1.5000     0.0000     0.0000     0.0000     0.0000    17.0000     8.0000     8.0000    17.0000     0.0000     0.0000   142.0306   -75.9388     0.0000    -4.2998    -2.9995    -1.8994    -0.6005     0.4003     1.8994     2.7994     3.8002    31.3400    22.1100    13.8400     6.4800    -5.6200   -10.4100   -14.3900   -16.8000     1.7578     4.9000     4.800
