# scan = 218
# date = 3/12/2025
# time = 2:22:01 PM
# proposal = 35030
# experiment = CTAX Instrumental resolution benchmarking
# experiment_number = 445
# command = scan h 1 k 0 l 7.5 6.5 0.01 e -0.25 preset mcu 5
# builtin_command = scan h 1 k 0 l 7.5 6.5 0.01 e -0.25 preset mcu 5
# users = Tao Hong, Tao Hong, Bing Li
# local_contact = Tao Hong
# scan_title = (10L) scan at E=-0.25 meV and hori-focusing
# monochromator = PG002
# analyzer = Pg002
# sense = -+-
# collimation = 48-40-40-120
# samplename = LaN
# sampletype = crystal
# samplemosaic = 30.000000
# latticeconstants = 5.058628,5.058628,24.728465,90.000000,90.000000,120.000000
# ubmatrix = -0.002928,0.001986,-0.040430,-0.228168,-0.119258,0.000500,-0.005924,0.194622,0.000719
# mode = 0
# plane_normal = 0.017452,-0.026173,0.999505
# ubconf = UB10Mar2025_114214AM.ini
# preset_type = normal
# preset_channel = mcu
# preset_value = 5.000000
# def_x = l
# def_y = detector
# col_headers =
#   Pt.          h          k          l          e       time   detector    monitor        mcu focal_length         m1         m2       marc     mtrans     mfocus   vti_temp  smpl_temp         s1         s2        sgl        sgu        bbb        bbl        bbr        bbt        bab        bal        bar        bat        stl        stu         a1         a2     afocus        qm1        qm2        qm3        qm4        qm5        qm6        qm7        qm8        xm1        xm2        xm3        xm4        xm5        xm6        xm7        xm8          q         ei         ef
      1     1.0000    -0.0000     7.4999    -0.2500      4.779      6.000  11001.000      5.000   101.1021   140.8084   -78.3833     0.4200    -1.0000    27.7360     0.0000     0.0000    15.7400   105.1156    -1.0000    -1.5000     0.0000     0.0000     0.0000     0.0000    17.0000     8.0000     8.0000    17.0000     0.0000     0.0000   142.0306   -75.9388     0.0000    -4.2998    -2.9995    -1.8994    -0.6005     0.4003     1.8994     2.7994     3.8002    31.3400    22.1100    13.8400     6.4800    -5.6200   -10.4100   -14.3900   -16.8000     2.3851     4.5500     4.800
      2     1.0000    -0.0000     7.4901    -0.2500      4.832     10.000  11001.000      5.000   101.1021   140.8084   -78.3833     0.4200    -1.0000    27.7360     0.0000     0.0000    15.6400   104.9883    -1.0000    -1.5000     0.0000     0.0000     0.0000     0.0000    17.0000     8.0000     8.0000    17.0000     0.0000     0.0000   142.0306   -75.9388     0.0000    -4.2998    -2.9995    -1.8994    -0.6005     0.4003     1.8994     2.7994     3.8002    31.3400    22.1100    13.8400     6.4800    -5.6200   -10.4100   -14.3900   -16.8000     2.3830     4.5500     4.800
      3     1.0000    -0.0000     7.4798    -0.2500      4.736     14.000  11001.000      5.000   101.1021   140.8084   -78.3833     0.4200    -1.0000    27.7360     0.0000     0.0000    15.5350   104.8612    -1.0000    -1.5000     0.0000     0.0000     0.0000     0.0000    17.0000     8.0000     8.0000    17.0000     0.0000     0.0000   142.0306   -75.9388     0.0000    -4.2998    -2.9995    -1.8994    -0.6005     0.4003     1.8994     2.7994     3.8002    31.3400    22.1100    13.8400     6.4800    -5.6200   -10.4100   -14.3900   -16.8000     2.3810     4.5500     4.800
      4     1.0000    -0.0000     7.4699    -0.2500      4.817     11.000  11001.000      5.000   101.1021   140.8084   -78.3833     0.4200    -1.0000    27.7360     0.0000     0.0000    15.4350   104.7344    -1.0000    -1.5000     0.0000     0.0000     0.0000     0.0000    17.0000     8.0000     8.0000    17.0000     0.0000     0.0000   142.0306   -75.9388     0.0000    -4.2998    -2.9995    -1.8994    -0.6005     0.4003     1.8994     2.7994     3.8002    31.3400    22.1100    13.8400     6.4800    -5.6200   -10.4100   -14.3900   -16.8000     2.3790     4.5500     4.800
      5     1.0000    -0.0000     7.4601    -0.2500      4.698     18.000  11001.000      5.000   101.1021   140.8084   -78.3833     0.4200    -1.0000    27.7360     0.0000     0.0000    15.3350   104.6079    -1.0000    -1.5000     0.0000     0.0000     0.0000     0.0000    17.0000     8.0000     8.0000    17.0000     0.0000     0.0000   142.0306   -75.9388     0.0000    -4.2998    -2.9995    -1.8994    -0.6005     0.4003     1.8994     2.7994     3.8002    31.3400    22.1100    13.8400     6.4800    -5.6200   -10.4100   -14.3900   -16.8000     2.3769     4.5500     4.800
      6     0.9999    -0.0000     7.4502    -0.2500      4.806     10.000  11001.000      5.000   101.1021   140.8084   -78.3833     0.4200    -1.0000    27.7360     0.0000     0.0000    15.2350   104.4816    -1.0000    -1.5000     0.0000     0.0000     0.0000     0.0000    17.0000     8.0000     8.0000    17.0000     0.0000     0.0000   142.0306   -75.9388     0.0000    -4.2998    -2.9995    -1.8994    -0.6005     0.4003     1.8994     2.7994     3.8002    31.3400    22.1100    13.8400     6.4800    -5.6200   -10.4100   -14.3900   -16.8000     2.3749     4.5500     4.800
      7     1.0000    -0.0000     7.4399    -0.2500      4.792     11.000  11001.000      5.000   101.1021   140.8084   -78.3833     0.4200    -1.0000    27.7360     0.0000     0.0000    15.1300   104.3555    -1.0000    -1.5000     0.0000     0.0000     0.0000     0.0000    17.0000     8.0000     8.0000    17.0000     0.0000     0.0000   142.0306   -75.9388     0.0000    -4.2998    -2.9995    -1.8994    -0.6005     0.4003     1.8994     2.7994     3.8002    31.3400    22.1100    13.8400     6.4800    -5.6200   -10.4100   -14.3900   -16.8000     2.3729     4.5500     4.800
      8     1.0000    -0.0000     7.4300    -0.2500      4.761      9.000  11001.000      5.000   101.1021   140.8084   -78.3833     0.4200    -1.0000    27.7360     0.0000     0.0000    15.0300   104.2296    -1.0000    -1.5000     0.0000     0.0000     0.0000     0.0000    17.0000     8.0000     8.0000    17.0000     0.0000     0.0000   142.0306   -75.9388     0.0000    -4.2998    -2.9995    -1.8994    -0.6005     0.4003     1.8994     2.7994     3.8002    31.3400    22.1100    13.8400     6.4800    -5.6200   -10.4100   -14.3900   -16.8000     2.3709     4.5500     4.800
      9     1.0000    -0.0000     7.4199    -0.2500      4.810      7.000  11001.000      5.000   101.1021   140.8084   -78.3833     0.4200    -1.0000    27.7360     0.0000     0.0000    14.9275   104.1040    -1.0000    -1.5000     0.0000     0.0000     0.0000     0.0000    17.0000     8.0000     8.0000    17.0000     0.0000     0.0000   142.0306   -75.9388     0.0000    -4.2998    -2.9995    -1.8994    -0.6005     0.4003     1.8994     2.7994     3.8002    31.3400    22.1100    13.8400     6.4800    -5.6200   -10.4100   -14.3900   -16.8000     2.3688     4.5500     4.800
     10     1.0000    -0.0000     7.4100    -0.2500      4.864     13.000  11001.000      5.000   101.1021   140.8084   -78.3833     0.4200    -1.0000    27.7360     0.0000     0.0000    14.8275   103.9787    -1.0000    -1.5000     0.0000     0.0000     0.0000     0.0000    17.0000     8.0000     8.0000    17.0000     0.0000     0.0000   142.0306   -75.9388     0.0000    -4.2998    -2.9995    -1.8994    -0.6005     0.4003     1.8994     2.7994     3.8002    31.3400    22.1100    13.8400     6.4800    -5.6200   -10.4100   -14.3900   -16.8000     2.3668     4.5500     4.800
     11     1.0000    -0.0000     7.3999    -0.2500      4.764      6.000  11001.000      5.000   101.1021   140.8084   -78.3833     0.4200    -1.0000    27.7360     0.0000     0.0000    14.7250   103.8536    -1.0000    -1.5000     0.0000     0.0000     0.0000     0.0000    17.0000     8.0000     8.0000    17.0000     0.0000     0.0000   142.0306   -75.9388     0.0000    -4.2998    -2.9995    -1.8994    -0.6005     0.4003     1.8994     2.7994     3.8002    31.3400    22.1100    13.8400     6.4800    -5.6200   -10.4100   -14.3900   -16.8000     2.3648     4.5500     4.800
     12     0.9999    -0.0000     7.3903    -0.2500      4.866      5.000  11001.000      5.000   101.1021   140.8084   -78.3833     0.4200    -1.0000    27.7360     0.0000     0.0000    14.6275   103.7287    -1.0000    -1.5000     0.0000     0.0000     0.0000     0.0000    17.0000     8.0000     8.0000    17.0000     0.0000     0.0000   142.0306   -75.9388     0.0000    -4.2998    -2.9995    -1.8994    -0.6005     0.4003     1.8994     2.7994     3.8002    31.3400    22.1100    13.8400     6.4800    -5.6200   -10.4100   -14.3900   -16.8000     2.3628     4.5500     4.800
     13     1.0001    -0.0000     7.3796    -0.2500      4.676     13.000  11001.000      5.000   101.1021   140.8084   -78.3833     0.4200    -1.0000    27.7360     0.0000     0.0000    14.5200   103.6040    -1.0000    -1.5000     0.0000     0.0000     0.0000     0.0000    17.0000     8.0000     8.0000    17.0000     0.0000     0.0000   142.0306   -75.9388     0.0000    -4.2998    -2.9995    -1.8994    -0.6005     0.4003     1.8994     2.7994     3.8002    31.3400    22.1100    13.8400     6.4800    -5.6200   -10.4100   -14.3900   -16.8000     2.3608     4.5500     4.800
     14     0.9999    -0.0000     7.3702    -0.2500      4.747      6.000  11001.000      5.000   101.1021   140.8084   -78.3833     0.4200    -1.0000    27.7360     0.0000     0.0000    14.4250   103.4796    -1.0000    -1.5000     0.0000     0.0000     0.0000     0.0000    17.0000     8.0000     8.0000    17.0000     0.0000     0.0000   142.0306   -75.9388     0.0000    -4.2998    -2.9995    -1.8994    -0.6005     0.4003     1.8994     2.7994     3.8002    31.3400    22.1100    13.8400     6.4800    -5.6200   -10.4100   -14.3900   -16.8000     2.3588     4.5500     4.800
     15     1.0000    -0.0000     7.3601    -0.2500      4.847      6.000  11001.000      5.000   101.1021   140.8084   -78.3833     0.4200    -1.0000    27.7360     0.0000     0.0000    14.3225   103.3554    -1.0000    -1.5000     0.0000     0.0000     0.0000     0.0000    17.0000     8.0000     8.0000    17.0000     0.0000     0.0000   142.0306   -75.9388     0.0000    -4.2998    -2.9995    -1.8994    -0.6005     0.4003     1.8994     2.7994     3.8002    31.3400    22.1100    13.8400     6.4800    -5.6200   -10.4100   -14.3900   -16.8000     2.3567     4.5500     4.800
     16     1.0000    -0.0000     7.3499    -0.2500      4.822      6.000  11001.000      5.000   101.1021   140.8084   -78.3833     0.4200    -1.0000    27.7360     0.0000     0.0000    14.2200   103.2314    -1.0000    -1.5000     0.0000     0.0000     0.0000     0.0000    17.0000     8.0000     8.0000    17.0000     0.0000     0.0000   142.0306   -75.9388     0.0000    -4.2998    -2.9995    -1.8994    -0.6005     0.4003     1.8994     2.7994     3.8002    31.3400    22.1100    13.8400     6.4800    -5.6200   -10.4100   -14.3900   -16.8000     2.3547     4.5500     4.800
     17     1.0000    -0.0000     7.3400    -0.2500      4.763      8.000  11001.000      5.000   101.1021   140.8084   -78.3833     0.4200    -1.0000    27.7360     0.0000     0.0000    14.1200   103.1077    -1.0000    -1.5000     0.0000     0.0000     0.0000     0.0000    17.0000     8.0000     8.0000    17.0000     0.0000     0.0000   142.0306   -75.9388     0.0000    -4.2998    -2.9995    -1.8994    -0.6005     0.4003     1.8994     2.7994     3.8002    31.3400    22.1100    13.8400     6.4800    -5.6200   -10.4100   -14.3900   -16.8000     2.3527     4.5500     4.800
     18     1.0000    -0.0000     7.3299    -0.2500      4.771     13.000  11001.000      5.000   101.1021   140.8084   -78.3833     0.4200    -1.0000    27.7360     0.0000     0.0000    14.0175   102.9842    -1.0000    -1.5000     0.0000     0.0000     0.0000     0.0000    17.0000     8.0000     8.0000    17.0000     0.0000     0.0000   142.0306   -75.9388     0.0000    -4.2998    -2.9995    -1.8994    -0.6005     0.4003     1.8994     2.7994     3.8002    31.3400    22.1100    13.8400     6.4800    -5.6200   -10.4100   -14.3900   -16.8000     2.3507     4.5500     4.800
     19     1.0000    -0.0000     7.3199    -0.2500      4.817      6.000  11001.000      5.000   101.1021   140.8084   -78.3833     0.4200    -1.0000    27.7360     0.0000     0.0000    13.9175   102.8610    -1.0000    -1.5000     0.0000     0.0000     0.0000     0.0000    17.0000     8.0000     8.0000    17.0000     0.0000     0.0000   142.0306   -75.9388     0.0000    -4.2998    -2.9995    -1.8994    -0.6005     0.4003     1.8994     2.7994     3.8002    31.3400    22.1100    13.8400     6.4800    -5.6200   -10.4100   -14.3900   -16.8000     2.3487     4.5500     4.800
     20     1.0000    -0.0000     7.3100    -0.2500      4.797     12.000  11001.000      5.000   101.1021   140.8084   -78.3833     0.4200    -1.0000    27.7360     0.0000     0.0000    13.8175   102.7380    -1.0000    -1.5000     0.0000     0.0000     0.0000     0.0000    17.0000     8.0000     8.0000    17.0000     0.0000     0.0000   142.0306   -75.9388     0.0000    -4.2998    -2.9995    -1.8994    -0.6005     0.4003     1.8994     2.7994     3.8002    31.3400    22.1100    13.8400     6.4800    -5.6200   -10.4100   -14.3900   -16.8000     2.3467     4.5500     4.800
     21     1.0000    -0.0000     7.3001    -0.2500      4.699     11.000  11001.000      5.000   101.1021   140.8084   -78.3833     0.4200    -1.0000    27.7360     0.0000     0.0000    13.7175   102.6152    -1.0000    -1.5000     0.0000     0.0000     0.0000     0.0000    17.0000     8.0000     8.0000    17.0000     0.0000     0.0000   142.0306   -75.9388     0.0000    -4.2998    -2.9995    -1.8994    -0.6005     0.4003     1.8994     2.7994     3.8002    31.3400    22.1100    13.8400     6.4800    -5.6200   -10.4100   -14.3900   -16.8000     2.3447     4.5500     4.800
     22     1.0000    -0.0000     7.2899    -0.2500      4.834     17.000  11001.000      5.000   101.1021   140.8084   -78.3833     0.4200    -1.0000    27.7360     0.0000     0.0000    13.6150   102.4926    -1.0000    -1.5000     0.0000     0.0000     0.0000     0.0000    17.0000     8.0000     8.0000    17.0000     0.0000     0.0000   142.0306   -75.9388     0.0000    -4.2998    -2.9995    -1.8994    -0.6005     0.4003     1.8994     2.7994     3.8002    31.3400    22.1100    13.8400     6.4800    -5.6200   -10.4100   -14.3900   -16.8000     2.3426     4.5500     4.800
     23     1.0000    -0.0000     7.2802    -0.2500      4.806      7.000  11001.000      5.000   101.1021   140.8084   -78.3833     0.4200    -1.0000    27.7360     0.0000     0.0000    13.5175   102.3702    -1.0000    -1.5000     0.0000     0.0000     0.0000     0.0000    17.0000     8.0000     8.0000    17.0000     0.0000     0.0000   142.0306   -75.9388     0.0000    -4.2998    -2.9995    -1.8994    -0.6005     0.4003     1.8994     2.7994     3.8002    31.3400    22.1100    13.8400     6.4800    -5.6200   -10.4100   -14.3900   -16.8000     2.3406     4.5500     4.800
     24     1.0000    -0.0000     7.2700    -0.2500      4.760     13.000  11001.000      5.000   101.1021   140.8084   -78.3833     0.4200    -1.0000    27.7360     0.0000     0.0000    13.4150   102.2481    -1.0000    -1.5000     0.0000     0.0000     0.0000     0.0000    17.0000     8.0000     8.0000    17.0000     0.0000     0.0000   142.0306   -75.9388     0.0000    -4.2998    -2.9995    -1.8994    -0.6005     0.4003     1.8994     2.7994     3.8002    31.3400    22.1100    13.8400     6.4800    -5.6200   -10.4100   -14.3900   -16.8000     2.3386     4.5500     4.800
     25     1.0000    -0.0000     7.2601    -0.2500      4.719     12.000  11001.000      5.000   101.1021   140.8084   -78.3833     0.4200    -1.0000    27.7360     0.0000     0.0000    13.3150   102.1262    -1.0000    -1.5000     0.0000     0.0000     0.0000     0.0000    17.0000     8.0000     8.0000    17.0000     0.0000     0.0000   142.0306   -75.9388     0.0000    -4.2998    -2.9995    -1.8994    -0.6005     0.4003     1.8994     2.7994     3.8002    31.3400    22.1100    13.8400     6.4800    -5.6200   -10.4100   -14.3900   -16.8000     2.3366     4.5500     4.800
     26     1.0000    -0.0000     7.2499    -0.2500      4.783     12.000  11001.000      5.000   101.1021   140.8084   -78.3833     0.4200    -1.0000    27.7360     0.0000     0.0000    13.2125   102.0045    -1.0000    -1.5000     0.0000     0.0000     0.0000     0.0000    17.0000     8.0000     8.0000    17.0000     0.0000     0.0000   142.0306   -75.9388     0.0000    -4.2998    -2.9995    -1.8994    -0.6005     0.4003     1.8994     2.7994     3.8002    31.3400    22.1100    13.8400     6.4800    -5.6200   -10.4100   -14.3900   -16.8000     2.3346     4.5500     4.800
     27     1.0000    -0.0000     7.2399    -0.2500      4.798     17.000  11001.000      5.000   101.1021   140.8084   -78.3833     0.4200    -1.0000    27.7360     0.0000     0.0000    13.1125   101.8830    -1.0000    -1.5000     0.0000     0.0000     0.0000     0.0000    17.0000     8.0000     8.0000    17.0000     0.0000     0.0000   142.0306   -75.9388     0.0000    -4.2998    -2.9995    -1.8994    -0.6005     0.4003     1.8994     2.7994     3.8002    31.3400    22.1100    13.8400     6.4800    -5.6200   -10.4100   -14.3900   -16.8000     2.3326     4.5500     4.800
     28     1.0000    -0.0000     7.2299    -0.2500      4.798     14.000  11001.000      5.000   101.1021   140.8084   -78.3833     0.4200    -1.0000    27.7360     0.0000     0.0000    13.0125   101.7618    -1.0000    -1.5000     0.0000     0.0000     0.0000     0.0000    17.0000     8.0000     8.0000    17.0000     0.0000     0.0000   142.0306   -75.9388     0.0000    -4.2998    -2.9995    -1.8994    -0.6005     0.4003     1.8994     2.7994     3.8002    31.3400    22.1100    13.8400     6.4800    -5.6200   -10.4100   -14.3900   -16.8000     2.3306     4.5500     4.800
     29     0.9999    -0.0000     7.2202    -0.2500      4.750     49.000  11001.000      5.000   101.1021   140.8084   -78.3833     0.4200    -1.0000    27.7360     0.0000     0.0000    12.9150   101.6408    -1.0000    -1.5000     0.0000     0.0000     0.0000     0.0000    17.0000     8.0000     8.0000    17.0000     0.0000     0.0000   142.0306   -75.9388     0.0000    -4.2998    -2.9995    -1.8994    -0.6005     0.4003     1.8994     2.7994     3.8002    31.3400    22.1100    13.8400     6.4800    -5.6200   -10.4100   -14.3900   -16.8000     2.3286     4.5500     4.800
     30     1.0000    -0.0000     7.2100    -0.2500      4.761     98.000  11001.000      5.000   101.1021   140.8084   -78.3833     0.4200    -1.0000    27.7360     0.0000     0.0000    12.8125   101.5200    -1.0000    -1.5000     0.0000     0.0000     0.0000     0.0000    17.0000     8.0000     8.0000    17.0000     0.0000     0.0000   142.0306   -75.9388     0.0000    -4.2998    -2.9995    -1.8994    -0.6005     0.4003     1.8994     2.7994     3.8002    31.3400    22.1100    13.8400     6.4800    -5.6200   -10.4100   -14.3900   -16.8000     2.3266     4.5500     4.800
     31     1.0000    -0.0000     7.2000    -0.2500      4.804    258.000  11001.000      5.000   101.1021   140.8084   -78.3833     0.4200    -1.0000    27.7360     0.0000     0.0000    12.7125   101.3994    -1.0000    -1.5000     0.0000     0.0000     0.0000     0.0000    17.0000     8.0000     8.0000    17.0000     0.0000     0.0000   142.0306   -75.9388     0.0000    -4.2998    -2.9995    -1.8994    -0.6005     0.4003     1.8994     2.7994     3.8002    31.3400    22.1100    13.8400     6.4800    -5.6200   -10.4100   -14.3900   -16.8000     2.3246     4.5500     4.800
