# scan = 11
# date = 9/21/2024
# time = 12:52:20 PM
# proposal = 34735
# experiment = Magnons and paramagnon coupling in MnTe
# experiment_number = 816
# command = th2th 2 -2 0.2
# builtin_command = scan s2 @(s2)+2 @(s2)+-2 0.200000 s1 @(s1)+(2/2) @(s1)+(-2/2) 0.100000
# users = Benjamin Frandsen, Songxue Chi, George Yumnam, Huibo Cao, Michael Manley, Raphael Hermann, Eleanor Clements
# local_contact = Eleanor Clements
# scan_title = check 200 high q th2th
# monochromator = PG002
# analyzer = Pg002
# sense = -+-
# collimation = 48-40-40-120
# samplename = MnTe
# sampletype = crystal
# samplemosaic = 30.000000
# latticeconstants = 4.134597,4.134597,6.680318,90.000000,90.000000,120.000000
# ubmatrix = -0.273500,-0.136751,0.030292,-0.056515,-0.028261,-0.146596,0.000002,-0.241861,0.000002
# mode = 0
# plane_normal = 0.000004,0.000013,1.000000
# ubconf = UB21Sep2024_124911PM.ini
# preset_type = normal 
# preset_channel = time
# preset_value = 1.000000
# def_x = s2
# def_y = detector
# col_headers = 
#   Pt.         s2         s1       time   detector    monitor        mcu focal_length         m1         m2   mcrystal       marc     mtrans     mfocus       temp     temp_2        sgl        sgu        bbb        bbl        bbr        bbt        bab        bal        bar        bat        stl        stu         a1         a2          q          h          k          l         ei         ef          e        vti     sample
      1    84.4184    30.5414      1.000     11.000   2584.000      1.029    66.7975   -20.0773   -41.1660   120.0962    -0.1480    -3.0001   -34.2897   250.0000   300.0000    -0.0003     0.0008    25.0000    25.0000    25.0000    25.0000    25.0000    25.0000    25.0000    25.0000    -0.0005     0.0005   159.4167   -41.1662     3.5789     2.0395     0.0000    -0.0005    14.7001    14.7000     0.0001   250.0380     0.000
      2    84.2196    30.4419      1.000      7.000   2671.000      1.063    66.7975   -20.0773   -41.1660   120.0962    -0.1480    -3.0001   -34.2897   250.0000   300.0000    -0.0003     0.0008    25.0000    25.0000    25.0000    25.0000    25.0000    25.0000    25.0000    25.0000    -0.0005     0.0005   159.4167   -41.1662     3.5720     2.0356     0.0000    -0.0005    14.7001    14.7000     0.0001   249.9990     0.000
      3    84.0188    30.3419      1.000      7.000   2585.000      1.029    66.7975   -20.0773   -41.1660   120.0962    -0.1480    -3.0001   -34.2897   250.0000   300.0000    -0.0003     0.0008    25.0000    25.0000    25.0000    25.0000    25.0000    25.0000    25.0000    25.0000    -0.0005     0.0005   159.4167   -41.1662     3.5651     2.0317     0.0000    -0.0005    14.7001    14.7000     0.0001   249.9910     0.000
      4    83.8194    30.2419      1.000      9.000   2722.000      1.084    66.7975   -20.0773   -41.1660   120.0962    -0.1480    -3.0001   -34.2897   250.0000   300.0000    -0.0003     0.0008    25.0000    25.0000    25.0000    25.0000    25.0000    25.0000    25.0000    25.0000    -0.0005     0.0005   159.4167   -41.1662     3.5582     2.0278     0.0000    -0.0005    14.7001    14.7000     0.0001   250.0180     0.000
      5    83.6174    30.1419      1.000     36.000   2577.000      1.026    66.7975   -20.0773   -41.1660   120.0962    -0.1480    -3.0001   -34.2897   250.0000   300.0000    -0.0003     0.0008    25.0000    25.0000    25.0000    25.0000    25.0000    25.0000    25.0000    25.0000    -0.0005     0.0005   159.4167   -41.1662     3.5512     2.0238     0.0000    -0.0005    14.7001    14.7000     0.0001   249.9770     0.000
      6    83.4188    30.0419      1.000    134.000   2643.000      1.052    66.7975   -20.0773   -41.1660   120.0962    -0.1480    -3.0001   -34.2897   250.0000   300.0000    -0.0003     0.0008    25.0000    25.0000    25.0000    25.0000    25.0000    25.0000    25.0000    25.0000    -0.0005     0.0005   159.4167   -41.1662     3.5443     2.0198     0.0000    -0.0005    14.7001    14.7000     0.0001   249.8880     0.000
      7    83.2194    29.9419      1.000    542.000   2660.000      1.059    66.7975   -20.0773   -41.1660   120.0962    -0.1480    -3.0001   -34.2897   250.0000   300.0000    -0.0003     0.0008    25.0000    25.0000    25.0000    25.0000    25.0000    25.0000    25.0000    25.0000    -0.0005     0.0005   159.4167   -41.1662     3.5374     2.0159     0.0000    -0.0005    14.7001    14.7000     0.0001   249.8690     0.000
      8    83.0178    29.8419      1.000   1015.000   2623.000      1.044    66.7975   -20.0773   -41.1660   120.0962    -0.1480    -3.0001   -34.2897   250.0000   300.0000    -0.0003     0.0008    25.0000    25.0000    25.0000    25.0000    25.0000    25.0000    25.0000    25.0000    -0.0005     0.0005   159.4167   -41.1662     3.5304     2.0119     0.0000    -0.0005    14.7001    14.7000     0.0001   249.9690     0.000
      9    82.8194    29.7419      1.000   1310.000   2669.000      1.062    66.7975   -20.0773   -41.1660   120.0962    -0.1480    -3.0001   -34.2897   250.0000   300.0000    -0.0003     0.0008    25.0000    25.0000    25.0000    25.0000    25.0000    25.0000    25.0000    25.0000    -0.0005     0.0005   159.4167   -41.1662     3.5235     2.0080    -0.0000    -0.0005    14.7001    14.7000     0.0001   250.0090     0.000
     10    82.6182    29.6419      1.000   1394.000   2640.000      1.051    66.7975   -20.0773   -41.1660   120.0962    -0.1480    -3.0001   -34.2897   250.0000   300.0000    -0.0003     0.0008    25.0000    25.0000    25.0000    25.0000    25.0000    25.0000    25.0000    25.0000    -0.0005     0.0005   159.4167   -41.1662     3.5165     2.0040     0.0000    -0.0005    14.7001    14.7000     0.0001   250.0320     0.000
     11    82.4174    29.5419      1.000   1342.000   2578.000      1.026    66.7975   -20.0773   -41.1660   120.0962    -0.1480    -3.0001   -34.2897   250.0000   300.0000    -0.0003     0.0008    25.0000    25.0000    25.0000    25.0000    25.0000    25.0000    25.0000    25.0000    -0.0005     0.0005   159.4167   -41.1662     3.5094     2.0000     0.0000    -0.0005    14.7001    14.7000     0.0001   250.0180     0.000
     12    82.2192    29.4419      1.000   1183.000   2614.000      1.041    66.7975   -20.0773   -41.1660   120.0962    -0.1480    -3.0001   -34.2897   250.0000   300.0000    -0.0003     0.0008    25.0000    25.0000    25.0000    25.0000    25.0000    25.0000    25.0000    25.0000    -0.0005     0.0005   159.4167   -41.1662     3.5025     1.9960     0.0000    -0.0005    14.7001    14.7000     0.0001   250.0240     0.000
     13    82.0184    29.3419      1.000    907.000   2547.000      1.014    66.7975   -20.0773   -41.1660   120.0962    -0.1480    -3.0001   -34.2897   250.0000   300.0000    -0.0003     0.0008    25.0000    25.0000    25.0000    25.0000    25.0000    25.0000    25.0000    25.0000    -0.0005     0.0005   159.4167   -41.1662     3.4955     1.9920     0.0000    -0.0005    14.7001    14.7000     0.0001   250.0060     0.000
     14    81.8184    29.2419      1.000    599.000   2609.000      1.039    66.7975   -20.0773   -41.1660   120.0962    -0.1480    -3.0001   -34.2897   250.0000   300.0000    -0.0003     0.0008    25.0000    25.0000    25.0000    25.0000    25.0000    25.0000    25.0000    25.0000    -0.0005     0.0005   159.4167   -41.1662     3.4884     1.9880     0.0000    -0.0005    14.7001    14.7000     0.0001   250.0130     0.000
     15    81.6200    29.1419      1.000    346.000   2625.000      1.045    66.7975   -20.0773   -41.1660   120.0962    -0.1480    -3.0001   -34.2897   250.0000   300.0000    -0.0003     0.0008    25.0000    25.0000    25.0000    25.0000    25.0000    25.0000    25.0000    25.0000    -0.0005     0.0005   159.4167   -41.1662     3.4815     1.9840     0.0000    -0.0004    14.7001    14.7000     0.0001   249.9050     0.000
     16    81.4182    29.0419      1.000    174.000   2651.000      1.055    66.7975   -20.0773   -41.1660   120.0962    -0.1480    -3.0001   -34.2897   250.0000   300.0000    -0.0003     0.0008    25.0000    25.0000    25.0000    25.0000    25.0000    25.0000    25.0000    25.0000    -0.0005     0.0005   159.4167   -41.1662     3.4744     1.9800     0.0000    -0.0005    14.7001    14.7000     0.0001   249.9180     0.000
     17    81.2200    28.9419      1.000     81.000   2616.000      1.041    66.7975   -20.0773   -41.1660   120.0962    -0.1480    -3.0001   -34.2897   250.0000   300.0000    -0.0003     0.0008    25.0000    25.0000    25.0000    25.0000    25.0000    25.0000    25.0000    25.0000    -0.0005     0.0005   159.4167   -41.1662     3.4674     1.9760     0.0000    -0.0004    14.7001    14.7000     0.0001   249.9220     0.000
     18    81.0192    28.8419      1.000     20.000   2606.000      1.037    66.7975   -20.0773   -41.1660   120.0962    -0.1480    -3.0001   -34.2897   250.0000   300.0000    -0.0003     0.0008    25.0000    25.0000    25.0000    25.0000    25.0000    25.0000    25.0000    25.0000    -0.0005     0.0005   159.4167   -41.1662     3.4603     1.9719     0.0000    -0.0005    14.7001    14.7000     0.0001   250.0180     0.000
     19    80.8204    28.7419      1.000      8.000   2647.000      1.054    66.7975   -20.0773   -41.1660   120.0962    -0.1480    -3.0001   -34.2897   250.0000   300.0000    -0.0003     0.0008    25.0000    25.0000    25.0000    25.0000    25.0000    25.0000    25.0000    25.0000    -0.0005     0.0005   159.4167   -41.1662     3.4533     1.9679     0.0000    -0.0004    14.7001    14.7000     0.0001   250.0070     0.000
     20    80.6174    28.6419      1.000      3.000   2586.000      1.029    66.7975   -20.0773   -41.1660   120.0962    -0.1480    -3.0001   -34.2897   250.0000   300.0000    -0.0003     0.0008    25.0000    25.0000    25.0000    25.0000    25.0000    25.0000    25.0000    25.0000    -0.0005     0.0005   159.4167   -41.1662     3.4461     1.9638     0.0000    -0.0005    14.7001    14.7000     0.0001   250.0380     0.000
     21    80.4178    28.5419      1.000      2.000   2673.000      1.064    66.7975   -20.0773   -41.1660   120.0962    -0.1480    -3.0001   -34.2897   250.0000   300.0000    -0.0003     0.0008    25.0000    25.0000    25.0000    25.0000    25.0000    25.0000    25.0000    25.0000    -0.0005     0.0005   159.4167   -41.1662     3.4390     1.9598     0.0000    -0.0005    14.7001    14.7000     0.0001   250.0400     0.000
# Sum of Counts = 9130
# Center of Mass = 82.475934+/-1.220705
# Full Width Half-Maximum = 0.989017+/-0.612815
# 12:53:18 PM  9/21/2024   scan completed.
