# scan = 61
# date = 9/22/2024
# time = 3:04:06 PM
# proposal = 34735
# experiment = Magnons and paramagnon coupling in MnTe
# experiment_number = 816
# command = scan h 1.425 k 0.0 l 1.425 e 45 1 0.5 ef 14.7 preset mcu 60
# builtin_command = scan h 1.425 k 0.0 l 1.425 e 45 1 0.5 ef 14.7 preset mcu 60
# users = Benjamin Frandsen, Songxue Chi, George Yumnam, Huibo Cao, Michael Manley, Raphael Hermann, Eleanor Clements
# local_contact = Eleanor Clements
# scan_title = H0L scans along (101) to (1.5, 0, 1.5) at H/L = 1.425, mcu = 60, E = 45 to 0.5 mev
# monochromator = PG002
# analyzer = Pg002
# sense = -+-
# collimation = 48-40-40-120
# samplename = MnTe
# sampletype = crystal
# samplemosaic = 30.000000
# latticeconstants = 4.134597,4.134597,6.679746,90.000000,90.000000,120.000000
# ubmatrix = -0.273127,-0.149222,-0.030247,-0.056745,-0.024153,0.146560,-0.013326,0.234830,-0.004146
# mode = 0
# plane_normal = -0.052339,0.017444,0.998477
# ubconf = UB21Sep2024_13243PM.ini
# preset_type = normal 
# preset_channel = mcu
# preset_value = 60.000000
# def_x = e
# def_y = detector
# col_headers = 
#   Pt.          h          k          l          e         ef       time   detector    monitor        mcu focal_length         m1         m2   mcrystal       marc     mtrans     mfocus       temp     temp_2         s1         s2        sgl        sgu        bbb        bbl        bbr        bbt        bab        bal        bar        bat        stl        stu         a1         a2          q         ei        vti     sample
      1     1.4251    -0.0000     1.4248    45.0050    14.7000     50.784     15.000 150721.000     60.000    33.1461   -20.0773   -20.0928   120.0962    -0.1480    -3.0001   -73.0266   250.0000   300.0000    94.2939    13.0332     3.0010     1.0017    14.0000    10.0000    17.0000    10.0000    19.0000    20.0000     8.0000    12.0000    -0.0005     0.0005   159.4167   -41.1662     2.8372    59.7050   249.9930     0.000
      2     1.4250    -0.0000     1.4251    44.4999    14.7000     49.537      8.000 150721.000     60.000    33.2857   -20.0773   -20.1792   120.0962    -0.1480    -3.0001   -72.6858   250.0000   300.0000    93.2951    14.1064     3.0010     1.0017    14.0000    10.0000    17.0000    10.0000    19.0000    20.0000     8.0000    12.0000    -0.0005     0.0005   159.4167   -41.1662     2.8372    59.1999   249.9140     0.000
      3     1.4250    -0.0000     1.4250    44.0002    14.7000     49.601      5.000 150721.000     60.000    33.4272   -20.0773   -20.2658   120.0962    -0.1480    -3.0001   -72.3439   250.0000   300.0000    92.3625    15.1031     3.0010     1.0017    14.0000    10.0000    17.0000    10.0000    19.0000    20.0000     8.0000    12.0000    -0.0005     0.0005   159.4167   -41.1662     2.8372    58.7002   250.0800     0.000
      4     1.4250    -0.0000     1.4249    43.4992    14.7000     49.477     10.000 150721.000     60.000    33.5705   -20.0773   -20.3538   120.0962    -0.1480    -3.0001   -72.0008   250.0000   300.0000    91.4832    16.0420     3.0010     1.0017    14.0000    10.0000    17.0000    10.0000    19.0000    20.0000     8.0000    12.0000    -0.0005     0.0005   159.4167   -41.1662     2.8371    58.1992   250.0510     0.000
      5     1.4250    -0.0000     1.4251    43.0002    14.7000     49.247     22.000 150721.000     60.000    33.7156   -20.0773   -20.4425   120.0962    -0.1480    -3.0001   -71.6566   250.0000   300.0000    90.6484    16.9389     3.0010     1.0017    14.0000    10.0000    17.0000    10.0000    19.0000    20.0000     8.0000    12.0000    -0.0005     0.0005   159.4167   -41.1662     2.8372    57.7003   249.8560     0.000
      6     1.4250    -0.0000     1.4251    42.4992    14.7000     49.581     13.000 150721.000     60.000    33.8626   -20.0773   -20.5329   120.0962    -0.1480    -3.0001   -71.3112   250.0000   300.0000    89.8508    17.7932     3.0010     1.0017    14.0000    10.0000    17.0000    10.0000    19.0000    20.0000     8.0000    12.0000    -0.0005     0.0005   159.4167   -41.1662     2.8371    57.1992   250.0690     0.000
      7     1.4250    -0.0000     1.4251    42.0000    14.7000     49.760     19.000 150721.000     60.000    34.0116   -20.0773   -20.6240   120.0962    -0.1480    -3.0001   -70.9646   250.0000   300.0000    89.0860    18.6137     3.0010     1.0017    14.0000    10.0000    17.0000    10.0000    19.0000    20.0000     8.0000    12.0000    -0.0005     0.0005   159.4167   -41.1662     2.8372    56.7000   250.0870     0.000
      8     1.4250    -0.0000     1.4250    41.5003    14.7000     50.346     18.000 150721.000     60.000    34.1626   -20.0773   -20.7165   120.0962    -0.1480    -3.0001   -70.6168   250.0000   300.0000    88.3498    19.4021     3.0010     1.0017    14.0000    10.0000    17.0000    10.0000    19.0000    20.0000     8.0000    12.0000    -0.0005     0.0005   159.4167   -41.1662     2.8372    56.2004   249.8540     0.000
      9     1.4250    -0.0000     1.4251    41.0006    14.7000     50.726     40.000 150721.000     60.000    34.3156   -20.0773   -20.8103   120.0962    -0.1480    -3.0001   -70.2678   250.0000   300.0000    87.6377    20.1674     3.0010     1.0017    14.0000    10.0000    17.0000    10.0000    19.0000    20.0000     8.0000    12.0000    -0.0005     0.0005   159.4167   -41.1662     2.8372    55.7007   250.0020     0.000
     10     1.4250    -0.0000     1.4250    40.4988    14.7000     50.906     16.000 150721.000     60.000    34.4706   -20.0773   -20.9057   120.0962    -0.1480    -3.0001   -69.9176   250.0000   300.0000    86.9480    20.9066     3.0010     1.0017    14.0000    10.0000    17.0000    10.0000    19.0000    20.0000     8.0000    12.0000    -0.0005     0.0005   159.4167   -41.1662     2.8371    55.1988   249.9620     0.000
     11     1.4250    -0.0000     1.4250    39.9998    14.7000     51.513     10.000 150721.000     60.000    34.6278   -20.0773   -21.0019   120.0962    -0.1480    -3.0001   -69.5662   250.0000   300.0000    86.2785    21.6267     3.0010     1.0017    14.0000    10.0000    17.0000    10.0000    19.0000    20.0000     8.0000    12.0000    -0.0005     0.0005   159.4167   -41.1662     2.8371    54.6998   250.0540     0.000
     12     1.4250    -0.0000     1.4250    39.5006    14.7000     51.781     13.000 150721.000     60.000    34.7872   -20.0773   -21.0995   120.0962    -0.1480    -3.0001   -69.2134   250.0000   300.0000    85.6262    22.3279     3.0010     1.0017    14.0000    10.0000    17.0000    10.0000    19.0000    20.0000     8.0000    12.0000    -0.0005     0.0005   159.4167   -41.1662     2.8372    54.2007   250.0530     0.000
     13     1.4250    -0.0000     1.4251    38.9992    14.7000     52.325     11.000 150721.000     60.000    34.9487   -20.0773   -21.1989   120.0962    -0.1480    -3.0001   -68.8594   250.0000   300.0000    84.9909    23.0125     3.0010     1.0017    14.0000    10.0000    17.0000    10.0000    19.0000    20.0000     8.0000    12.0000    -0.0005     0.0005   159.4167   -41.1662     2.8371    53.6992   249.9120     0.000
     14     1.4250    -0.0000     1.4250    38.5006    14.7000     52.433     17.000 150721.000     60.000    35.1126   -20.0773   -21.2992   120.0962    -0.1480    -3.0001   -68.5041   250.0000   300.0000    84.3701    23.6804     3.0010     1.0017    14.0000    10.0000    17.0000    10.0000    19.0000    20.0000     8.0000    12.0000    -0.0005     0.0005   159.4167   -41.1662     2.8372    53.2007   250.0200     0.000
     15     1.4250    -0.0000     1.4250    38.0001    14.7000     52.235     13.000 150721.000     60.000    35.2788   -20.0773   -21.4013   120.0962    -0.1480    -3.0001   -68.1475   250.0000   300.0000    83.7625    24.3353     3.0010     1.0017    14.0000    10.0000    17.0000    10.0000    19.0000    20.0000     8.0000    12.0000    -0.0005     0.0005   159.4167   -41.1662     2.8372    52.7001   249.9000     0.000
     16     1.4250    -0.0000     1.4251    37.4997    14.7000     51.822     16.000 150721.000     60.000    35.4473   -20.0773   -21.5048   120.0962    -0.1480    -3.0001   -67.7895   250.0000   300.0000    83.1675    24.9790     3.0010     1.0017    14.0000    10.0000    17.0000    10.0000    19.0000    20.0000     8.0000    12.0000    -0.0005     0.0005   159.4167   -41.1662     2.8372    52.1997   250.0100     0.000
     17     1.4251    -0.0000     1.4251    37.0008    14.7000     51.315      6.000 150721.000     60.000    35.6183   -20.0773   -21.6096   120.0962    -0.1480    -3.0001   -67.4302   250.0000   300.0000    82.5841    25.6080     3.0010     1.0017    14.0000    10.0000    17.0000    10.0000    19.0000    20.0000     8.0000    12.0000    -0.0005     0.0005   159.4167   -41.1662     2.8372    51.7008   249.9120     0.000
     18     1.4250    -0.0000     1.4250    36.4991    14.7000     50.240     14.000 150721.000     60.000    35.7918   -20.0773   -21.7165   120.0962    -0.1480    -3.0001   -67.0695   250.0000   300.0000    82.0109    26.2245     3.0010     1.0017    14.0000    10.0000    17.0000    10.0000    19.0000    20.0000     8.0000    12.0000    -0.0005     0.0005   159.4167   -41.1662     2.8371    51.1991   250.0980     0.000
     19     1.4250    -0.0000     1.4250    36.0005    14.7000     49.268      8.000 150721.000     60.000    35.9679   -20.0773   -21.8243   120.0962    -0.1480    -3.0001   -66.7074   250.0000   300.0000    81.4481    26.8336     3.0010     1.0017    14.0000    10.0000    17.0000    10.0000    19.0000    20.0000     8.0000    12.0000    -0.0005     0.0005   159.4167   -41.1662     2.8372    50.7005   250.0200     0.000
     20     1.4250    -0.0000     1.4249    35.5002    14.7000     48.464      8.000 150721.000     60.000    36.1466   -20.0773   -21.9341   120.0962    -0.1480    -3.0001   -66.3439   250.0000   300.0000    80.8939    27.4314     3.0010     1.0017    14.0000    10.0000    17.0000    10.0000    19.0000    20.0000     8.0000    12.0000    -0.0005     0.0005   159.4167   -41.1662     2.8371    50.2003   249.8880     0.000
     21     1.4250    -0.0000     1.4250    35.0003    14.7000     47.295     11.000 150721.000     60.000    36.3279   -20.0773   -22.0455   120.0962    -0.1480    -3.0001   -65.9790   250.0000   300.0000    80.3484    28.0222     3.0010     1.0017    14.0000    10.0000    17.0000    10.0000    19.0000    20.0000     8.0000    12.0000    -0.0005     0.0005   159.4167   -41.1662     2.8371    49.7004   250.0430     0.000
     22     1.4250    -0.0000     1.4250    34.5003    14.7000     46.000     11.000 150721.000     60.000    36.5121   -20.0773   -22.1587   120.0962    -0.1480    -3.0001   -65.6125   250.0000   300.0000    79.8104    28.6064     3.0010     1.0017    14.0000    10.0000    17.0000    10.0000    19.0000    20.0000     8.0000    12.0000    -0.0005     0.0005   159.4167   -41.1662     2.8372    49.2003   250.0120     0.000
     23     1.4250    -0.0000     1.4251    33.9988    14.7000     45.223      7.000 150721.000     60.000    36.6990   -20.0773   -22.2739   120.0962    -0.1480    -3.0001   -65.2446   250.0000   300.0000    79.2804    29.1822     3.0010     1.0017    14.0000    10.0000    17.0000    10.0000    19.0000    20.0000     8.0000    12.0000    -0.0005     0.0005   159.4167   -41.1662     2.8371    48.6988   250.0150     0.000
     24     1.4250    -0.0000     1.4250    33.5006    14.7000     44.708      7.000 150721.000     60.000    36.8889   -20.0773   -22.3902   120.0962    -0.1480    -3.0001   -64.8752   250.0000   300.0000    78.7572    29.7489     3.0010     1.0017    14.0000    10.0000    17.0000    10.0000    19.0000    20.0000     8.0000    12.0000    -0.0005     0.0005   159.4167   -41.1662     2.8372    48.2006   250.0320     0.000
     25     1.4250    -0.0000     1.4250    33.0003    14.7000     44.565      9.000 150721.000     60.000    37.0817   -20.0773   -22.5089   120.0962    -0.1480    -3.0001   -64.5042   250.0000   300.0000    78.2403    30.3109     3.0010     1.0017    14.0000    10.0000    17.0000    10.0000    19.0000    20.0000     8.0000    12.0000    -0.0005     0.0005   159.4167   -41.1662     2.8372    47.7003   249.8450     0.000
     26     1.4250    -0.0000     1.4249    32.5000    14.7000     44.226      8.000 150721.000     60.000    37.2776   -20.0773   -22.6294   120.0962    -0.1480    -3.0001   -64.1317   250.0000   300.0000    77.7297    30.8627     3.0010     1.0017    14.0000    10.0000    17.0000    10.0000    19.0000    20.0000     8.0000    12.0000    -0.0005     0.0005   159.4167   -41.1662     2.8370    47.2000   249.9080     0.000
     27     1.4250    -0.0000     1.4250    31.9994    14.7000     44.024      5.000 150721.000     60.000    37.4766   -20.0773   -22.7520   120.0962    -0.1480    -3.0001   -63.7576   250.0000   300.0000    77.2245    31.4145     3.0010     1.0017    14.0000    10.0000    17.0000    10.0000    19.0000    20.0000     8.0000    12.0000    -0.0005     0.0005   159.4167   -41.1662     2.8371    46.6994   250.0150     0.000
     28     1.4250    -0.0000     1.4250    31.5005    14.7000     43.930      7.000 150721.000     60.000    37.6789   -20.0773   -22.8762   120.0962    -0.1480    -3.0001   -63.3819   250.0000   300.0000    76.7250    31.9586     3.0010     1.0017    14.0000    10.0000    17.0000    10.0000    19.0000    20.0000     8.0000    12.0000    -0.0005     0.0005   159.4167   -41.1662     2.8372    46.2005   250.0720     0.000
     29     1.4250    -0.0000     1.4250    30.9990    14.7000     43.205      8.000 150721.000     60.000    37.8844   -20.0773   -23.0030   120.0962    -0.1480    -3.0001   -63.0045   250.0000   300.0000    76.2306    32.4977     3.0010     1.0017    14.0000    10.0000    17.0000    10.0000    19.0000    20.0000     8.0000    12.0000    -0.0005     0.0005   159.4167   -41.1662     2.8371    45.6990   250.0340     0.000
     30     1.4250    -0.0000     1.4250    30.5001    14.7000     43.061     15.000 150721.000     60.000    38.0934   -20.0773   -23.1314   120.0962    -0.1480    -3.0001   -62.6255   250.0000   300.0000    75.7409    33.0308     3.0010     1.0017    14.0000    10.0000    17.0000    10.0000    19.0000    20.0000     8.0000    12.0000    -0.0005     0.0005   159.4167   -41.1662     2.8371    45.2001   250.0190     0.000
     31     1.4250    -0.0000     1.4250    30.0002    14.7000     42.704      9.000 150721.000     60.000    38.3059   -20.0773   -23.2622   120.0962    -0.1480    -3.0001   -62.2448   250.0000   300.0000    75.2558    33.5623     3.0010     1.0017    14.0000    10.0000    17.0000    10.0000    19.0000    20.0000     8.0000    12.0000    -0.0005     0.0005   159.4167   -41.1662     2.8372    44.7002   250.0670     0.000
     32     1.4250    -0.0000     1.4250    29.4998    14.7000     42.310      7.000 150721.000     60.000    38.5219   -20.0773   -23.3953   120.0962    -0.1480    -3.0001   -61.8623   250.0000   300.0000    74.7750    34.0867     3.0010     1.0017    14.0000    10.0000    17.0000    10.0000    19.0000    20.0000     8.0000    12.0000    -0.0005     0.0005   159.4167   -41.1662     2.8371    44.1999   250.0100     0.000
     33     1.4251    -0.0000     1.4251    29.0003    14.7000     42.134      7.000 150721.000     60.000    38.7417   -20.0773   -23.5305   120.0962    -0.1480    -3.0001   -61.4781   250.0000   300.0000    74.2979    34.6117     3.0010     1.0017    14.0000    10.0000    17.0000    10.0000    19.0000    20.0000     8.0000    12.0000    -0.0005     0.0005   159.4167   -41.1662     2.8373    43.7003   250.0090     0.000
     34     1.4250    -0.0000     1.4250    28.5002    14.7000     42.147     11.000 150721.000     60.000    38.9652   -20.0773   -23.6683   120.0962    -0.1480    -3.0001   -61.0922   250.0000   300.0000    73.8246    35.1288     3.0010     1.0017    14.0000    10.0000    17.0000    10.0000    19.0000    20.0000     8.0000    12.0000    -0.0005     0.0005   159.4167   -41.1662     2.8372    43.2002   250.0550     0.000
     35     1.4250    -0.0000     1.4250    28.0006    14.7000     41.685      8.000 150721.000     60.000    39.1927   -20.0773   -23.8084   120.0962    -0.1480    -3.0001   -60.7044   250.0000   300.0000    73.3552    35.6422     3.0010     1.0017    14.0000    10.0000    17.0000    10.0000    19.0000    20.0000     8.0000    12.0000    -0.0005     0.0005   159.4167   -41.1662     2.8371    42.7006   250.0060     0.000
     36     1.4250    -0.0000     1.4250    27.5002    14.7000     41.390      6.000 150721.000     60.000    39.4242   -20.0773   -23.9512   120.0962    -0.1480    -3.0001   -60.3147   250.0000   300.0000    72.8891    36.1550     3.0010     1.0017    14.0000    10.0000    17.0000    10.0000    19.0000    20.0000     8.0000    12.0000    -0.0005     0.0005   159.4167   -41.1662     2.8372    42.2002   250.0110     0.000
     37     1.4250    -0.0000     1.4249    27.0008    14.7000     40.641      4.000 150721.000     60.000    39.6598   -20.0773   -24.0963   120.0962    -0.1480    -3.0001   -59.9232   250.0000   300.0000    72.4258    36.6617     3.0010     1.0017    14.0000    10.0000    17.0000    10.0000    19.0000    20.0000     8.0000    12.0000    -0.0005     0.0005   159.4167   -41.1662     2.8371    41.7008   250.0580     0.000
     38     1.4250    -0.0000     1.4250    26.4996    14.7000     39.790      6.000 150721.000     60.000    39.8998   -20.0773   -24.2447   120.0962    -0.1480    -3.0001   -59.5297   250.0000   300.0000    71.9660    37.1702     3.0010     1.0017    14.0000    10.0000    17.0000    10.0000    19.0000    20.0000     8.0000    12.0000    -0.0005     0.0005   159.4167   -41.1662     2.8372    41.1996   249.9850     0.000
     39     1.4250    -0.0000     1.4250    25.9999    14.7000     38.720     16.000 150721.000     60.000    40.1441   -20.0773   -24.3953   120.0962    -0.1480    -3.0001   -59.1343   250.0000   300.0000    71.5092    37.6718     3.0010     1.0017    14.0000    10.0000    17.0000    10.0000    19.0000    20.0000     8.0000    12.0000    -0.0005     0.0005   159.4167   -41.1662     2.8371    40.6999   250.0610     0.000
     40     1.4251    -0.0000     1.4250    25.5004    14.7000     38.434      5.000 150721.000     60.000    40.3930   -20.0773   -24.5488   120.0962    -0.1480    -3.0001   -58.7370   250.0000   300.0000    71.0544    38.1755     3.0010     1.0017    14.0000    10.0000    17.0000    10.0000    19.0000    20.0000     8.0000    12.0000    -0.0005     0.0005   159.4167   -41.1662     2.8372    40.2004   250.0610     0.000
     41     1.4250    -0.0000     1.4250    25.0002    14.7000     37.859     12.000 150721.000     60.000    40.6465   -20.0773   -24.7053   120.0962    -0.1480    -3.0001   -58.3375   250.0000   300.0000    70.6022    38.6725     3.0010     1.0017    14.0000    10.0000    17.0000    10.0000    19.0000    20.0000     8.0000    12.0000    -0.0005     0.0005   159.4167   -41.1662     2.8371    39.7002   250.0150     0.000
     42     1.4250    -0.0000     1.4251    24.5000    14.7000     37.755     15.000 150721.000     60.000    40.9049   -20.0773   -24.8650   120.0962    -0.1480    -3.0001   -57.9360   250.0000   300.0000    70.1529    39.1716     3.0010     1.0017    14.0000    10.0000    17.0000    10.0000    19.0000    20.0000     8.0000    12.0000    -0.0005     0.0005   159.4167   -41.1662     2.8372    39.2000   249.9040     0.000
     43     1.4250    -0.0000     1.4250    24.0001    14.7000     37.977     10.000 150721.000     60.000    41.1683   -20.0773   -25.0276   120.0962    -0.1480    -3.0001   -57.5324   250.0000   300.0000    69.7051    39.6647     3.0010     1.0017    14.0000    10.0000    17.0000    10.0000    19.0000    20.0000     8.0000    12.0000    -0.0005     0.0005   159.4167   -41.1662     2.8371    38.7001   249.8760     0.000
