# scan = 74
# date = 9/23/2024
# time = 4:04:58 AM
# proposal = 34735
# experiment = Magnons and paramagnon coupling in MnTe
# experiment_number = 816
# command = scan h 1.425 k 0.0 l 1.425 e 44.75 1.25 0.5 ef 14.7 preset mcu 60
# builtin_command = scan h 1.425 k 0.0 l 1.425 e 44.75 1.25 0.5 ef 14.7 preset mcu 60
# users = Benjamin Frandsen, Songxue Chi, George Yumnam, Huibo Cao, Michael Manley, Raphael Hermann, Eleanor Clements
# local_contact = Eleanor Clements
# scan_title = H0L scans along (101) to (1.5, 0, 1.5) at H/L = 1.425, mcu = 60, E = 44.75 to 1.25 mev
# monochromator = PG002
# analyzer = Pg002
# sense = -+-
# collimation = 48-40-40-120
# samplename = MnTe
# sampletype = crystal
# samplemosaic = 30.000000
# latticeconstants = 4.134597,4.134597,6.679746,90.000000,90.000000,120.000000
# ubmatrix = -0.273127,-0.149222,-0.030247,-0.056745,-0.024153,0.146560,-0.013326,0.234830,-0.004146
# mode = 0
# plane_normal = -0.052339,0.017444,0.998477
# ubconf = UB21Sep2024_13243PM.ini
# preset_type = normal 
# preset_channel = mcu
# preset_value = 60.000000
# def_x = e
# def_y = detector
# col_headers = 
#   Pt.          h          k          l          e         ef       time   detector    monitor        mcu focal_length         m1         m2   mcrystal       marc     mtrans     mfocus       temp     temp_2         s1         s2        sgl        sgu        bbb        bbl        bbr        bbt        bab        bal        bar        bat        stl        stu         a1         a2          q         ei        vti     sample
      1     1.4251    -0.0000     1.4250    44.7555    14.7000     50.168     11.000 150721.000     60.000    33.2157   -20.0773   -20.1353   120.0962    -0.1480    -3.0001   -72.8564   250.0000   300.0000    93.7854    13.5794     3.0010     1.0017    14.0000    10.0000    17.0000    10.0000    19.0000    20.0000     8.0000    12.0000    -0.0005     0.0005   159.4165   -41.1662     2.8373    59.4555   249.8640     0.000
      2     1.4250    -0.0000     1.4250    44.2477    14.7000     49.873      5.000 150721.000     60.000    33.3562   -20.0773   -20.2228   120.0962    -0.1480    -3.0001   -72.5150   250.0000   300.0000    92.8216    14.6121     3.0010     1.0017    14.0000    10.0000    17.0000    10.0000    19.0000    20.0000     8.0000    12.0000    -0.0005     0.0005   159.4165   -41.1662     2.8370    58.9477   250.0460     0.000
      3     1.4250    -0.0000     1.4251    43.7512    14.7000     49.030     11.000 150721.000     60.000    33.4986   -20.0773   -20.3094   120.0962    -0.1480    -3.0001   -72.1725   250.0000   300.0000    91.9171    15.5810     3.0010     1.0017    14.0000    10.0000    17.0000    10.0000    19.0000    20.0000     8.0000    12.0000    -0.0005     0.0005   159.4165   -41.1662     2.8372    58.4512   250.0750     0.000
      4     1.4250    -0.0000     1.4250    43.2496    14.7000     49.232     12.000 150721.000     60.000    33.6428   -20.0773   -20.3981   120.0962    -0.1480    -3.0001   -71.8288   250.0000   300.0000    91.0605    16.4966     3.0010     1.0017    14.0000    10.0000    17.0000    10.0000    19.0000    20.0000     8.0000    12.0000    -0.0005     0.0005   159.4165   -41.1662     2.8371    57.9496   249.8680     0.000
      5     1.4250    -0.0000     1.4251    42.7509    14.7000     49.227     15.000 150721.000     60.000    33.7889   -20.0773   -20.4873   120.0962    -0.1480    -3.0001   -71.4840   250.0000   300.0000    90.2454    17.3710     3.0010     1.0017    14.0000    10.0000    17.0000    10.0000    19.0000    20.0000     8.0000    12.0000    -0.0005     0.0005   159.4165   -41.1662     2.8372    57.4509   250.0310     0.000
      6     1.4250    -0.0000     1.4251    42.2489    14.7000     49.354     24.000 150721.000     60.000    33.9369   -20.0773   -20.5784   120.0962    -0.1480    -3.0001   -71.1380   250.0000   300.0000    89.4650    18.2066     3.0010     1.0017    14.0000    10.0000    17.0000    10.0000    19.0000    20.0000     8.0000    12.0000    -0.0005     0.0005   159.4165   -41.1662     2.8371    56.9489   250.0400     0.000
      7     1.4251    -0.0000     1.4251    41.7517    14.7000     49.649     19.000 150721.000     60.000    34.0869   -20.0773   -20.6698   120.0962    -0.1480    -3.0001   -70.7908   250.0000   300.0000    88.7145    19.0121     3.0010     1.0017    14.0000    10.0000    17.0000    10.0000    19.0000    20.0000     8.0000    12.0000    -0.0005     0.0005   159.4165   -41.1662     2.8373    56.4517   249.9020     0.000
      8     1.4250    -0.0000     1.4251    41.2494    14.7000     50.355     30.000 150721.000     60.000    34.2388   -20.0773   -20.7634   120.0962    -0.1480    -3.0001   -70.4425   250.0000   300.0000    87.9905    19.7881     3.0010     1.0017    14.0000    10.0000    17.0000    10.0000    19.0000    20.0000     8.0000    12.0000    -0.0005     0.0005   159.4165   -41.1662     2.8371    55.9494   250.0760     0.000
      9     1.4250    -0.0000     1.4251    40.7495    14.7000     50.712     32.000 150721.000     60.000    34.3928   -20.0773   -20.8579   120.0962    -0.1480    -3.0001   -70.0929   250.0000   300.0000    87.2904    20.5405     3.0010     1.0017    14.0000    10.0000    17.0000    10.0000    19.0000    20.0000     8.0000    12.0000    -0.0005     0.0005   159.4165   -41.1662     2.8372    55.4495   250.0490     0.000
     10     1.4250    -0.0000     1.4250    40.2506    14.7000     50.987     12.000 150721.000     60.000    34.5490   -20.0773   -20.9534   120.0962    -0.1480    -3.0001   -69.7420   250.0000   300.0000    86.6109    21.2686     3.0010     1.0017    14.0000    10.0000    17.0000    10.0000    19.0000    20.0000     8.0000    12.0000    -0.0005     0.0005   159.4165   -41.1662     2.8372    54.9506   250.0380     0.000
     11     1.4250    -0.0000     1.4251    39.7482    14.7000     51.718     22.000 150721.000     60.000    34.7072   -20.0773   -21.0509   120.0962    -0.1480    -3.0001   -69.3900   250.0000   300.0000    85.9504    21.9804     3.0010     1.0017    14.0000    10.0000    17.0000    10.0000    19.0000    20.0000     8.0000    12.0000    -0.0005     0.0005   159.4165   -41.1662     2.8371    54.4482   250.0630     0.000
     12     1.4250    -0.0000     1.4250    39.2509    14.7000     51.742     10.000 150721.000     60.000    34.8677   -20.0773   -21.1489   120.0962    -0.1480    -3.0001   -69.0366   250.0000   300.0000    85.3064    22.6718     3.0010     1.0017    14.0000    10.0000    17.0000    10.0000    19.0000    20.0000     8.0000    12.0000    -0.0005     0.0005   159.4165   -41.1662     2.8372    53.9509   249.8390     0.000
     13     1.4250    -0.0000     1.4251    38.7500    14.7000     51.671     12.000 150721.000     60.000    35.0304   -20.0773   -21.2489   120.0962    -0.1480    -3.0001   -68.6819   250.0000   300.0000    84.6790    23.3483     3.0010     1.0017    14.0000    10.0000    17.0000    10.0000    19.0000    20.0000     8.0000    12.0000    -0.0005     0.0005   159.4165   -41.1662     2.8372    53.4500   250.0690     0.000
     14     1.4250    -0.0000     1.4250    38.2507    14.7000     51.807      6.000 150721.000     60.000    35.1954   -20.0773   -21.3500   120.0962    -0.1480    -3.0001   -68.3260   250.0000   300.0000    84.0645    24.0098     3.0010     1.0017    14.0000    10.0000    17.0000    10.0000    19.0000    20.0000     8.0000    12.0000    -0.0005     0.0005   159.4165   -41.1662     2.8372    52.9507   249.9180     0.000
     15     1.4250    -0.0000     1.4250    37.7492    14.7000     51.678     10.000 150721.000     60.000    35.3628   -20.0773   -21.4530   120.0962    -0.1480    -3.0001   -67.9687   250.0000   300.0000    83.4638    24.6568     3.0010     1.0017    14.0000    10.0000    17.0000    10.0000    19.0000    20.0000     8.0000    12.0000    -0.0005     0.0005   159.4165   -41.1662     2.8371    52.4493   250.0520     0.000
     16     1.4250    -0.0000     1.4250    37.2504    14.7000     51.341      2.000 150721.000     60.000    35.5325   -20.0773   -21.5570   120.0962    -0.1480    -3.0001   -67.6100   250.0000   300.0000    82.8744    25.2922     3.0010     1.0017    14.0000    10.0000    17.0000    10.0000    19.0000    20.0000     8.0000    12.0000    -0.0005     0.0005   159.4165   -41.1662     2.8371    51.9504   250.0820     0.000
     17     1.4250    -0.0000     1.4250    36.7498    14.7000     50.731     17.000 150721.000     60.000    35.7048   -20.0773   -21.6629   120.0962    -0.1480    -3.0001   -67.2500   250.0000   300.0000    82.2961    25.9178     3.0010     1.0017    14.0000    10.0000    17.0000    10.0000    19.0000    20.0000     8.0000    12.0000    -0.0005     0.0005   159.4165   -41.1662     2.8372    51.4498   249.9890     0.000
     18     1.4250    -0.0000     1.4250    36.2495    14.7000     49.752     14.000 150721.000     60.000    35.8795   -20.0773   -21.7703   120.0962    -0.1480    -3.0001   -66.8886   250.0000   300.0000    81.7285    26.5308     3.0010     1.0017    14.0000    10.0000    17.0000    10.0000    19.0000    20.0000     8.0000    12.0000    -0.0005     0.0005   159.4165   -41.1662     2.8371    50.9495   250.0420     0.000
     19     1.4250    -0.0000     1.4251    35.7495    14.7000     48.798      9.000 150721.000     60.000    36.0569   -20.0773   -21.8792   120.0962    -0.1480    -3.0001   -66.5258   250.0000   300.0000    81.1698    27.1355     3.0010     1.0017    14.0000    10.0000    17.0000    10.0000    19.0000    20.0000     8.0000    12.0000    -0.0005     0.0005   159.4165   -41.1662     2.8372    50.4495   249.9310     0.000
     20     1.4250    -0.0000     1.4250    35.2506    14.7000     47.589      9.000 150721.000     60.000    36.2369   -20.0773   -21.9895   120.0962    -0.1480    -3.0001   -66.1616   250.0000   300.0000    80.6200    27.7296     3.0010     1.0017    14.0000    10.0000    17.0000    10.0000    19.0000    20.0000     8.0000    12.0000    -0.0005     0.0005   159.4165   -41.1662     2.8372    49.9507   250.0450     0.000
     21     1.4250    -0.0000     1.4251    34.7508    14.7000     46.308     13.000 150721.000     60.000    36.4196   -20.0773   -22.1018   120.0962    -0.1480    -3.0001   -65.7959   250.0000   300.0000    80.0787    28.3164     3.0010     1.0017    14.0000    10.0000    17.0000    10.0000    19.0000    20.0000     8.0000    12.0000    -0.0005     0.0005   159.4165   -41.1662     2.8372    49.4509   250.0080     0.000
     22     1.4250    -0.0000     1.4250    34.2495    14.7000     45.703     16.000 150721.000     60.000    36.6052   -20.0773   -22.2161   120.0962    -0.1480    -3.0001   -65.4288   250.0000   300.0000    79.5444    28.8936     3.0010     1.0017    14.0000    10.0000    17.0000    10.0000    19.0000    20.0000     8.0000    12.0000    -0.0005     0.0005   159.4165   -41.1662     2.8371    48.9496   250.0530     0.000
     23     1.4250    -0.0000     1.4251    33.7503    14.7000     44.658      9.000 150721.000     60.000    36.7936   -20.0773   -22.3317   120.0962    -0.1480    -3.0001   -65.0601   250.0000   300.0000    79.0181    29.4668     3.0010     1.0017    14.0000    10.0000    17.0000    10.0000    19.0000    20.0000     8.0000    12.0000    -0.0005     0.0005   159.4165   -41.1662     2.8372    48.4503   250.0720     0.000
     24     1.4250    -0.0000     1.4250    33.2499    14.7000     44.461     13.000 150721.000     60.000    36.9849   -20.0773   -22.4494   120.0962    -0.1480    -3.0001   -64.6899   250.0000   300.0000    78.4979    30.0296     3.0010     1.0017    14.0000    10.0000    17.0000    10.0000    19.0000    20.0000     8.0000    12.0000    -0.0005     0.0005   159.4165   -41.1662     2.8371    47.9499   249.8960     0.000
     25     1.4250    -0.0000     1.4251    32.7493    14.7000     44.059      8.000 150721.000     60.000    37.1793   -20.0773   -22.5691   120.0962    -0.1480    -3.0001   -64.3182   250.0000   300.0000    77.9843    30.5909     3.0010     1.0017    14.0000    10.0000    17.0000    10.0000    19.0000    20.0000     8.0000    12.0000    -0.0005     0.0005   159.4165   -41.1662     2.8372    47.4493   249.8890     0.000
     26     1.4250    -0.0000     1.4250    32.2503    14.7000     43.901      1.000 150721.000     60.000    37.3767   -20.0773   -22.6903   120.0962    -0.1480    -3.0001   -63.9448   250.0000   300.0000    77.4763    31.1414     3.0010     1.0017    14.0000    10.0000    17.0000    10.0000    19.0000    20.0000     8.0000    12.0000    -0.0005     0.0005   159.4165   -41.1662     2.8372    46.9503   250.0190     0.000
     27     1.4250    -0.0000     1.4250    31.7502    14.7000     43.558      6.000 150721.000     60.000    37.5773   -20.0773   -22.8138   120.0962    -0.1480    -3.0001   -63.5699   250.0000   300.0000    76.9745    31.6867     3.0010     1.0017    14.0000    10.0000    17.0000    10.0000    19.0000    20.0000     8.0000    12.0000    -0.0005     0.0005   159.4165   -41.1662     2.8371    46.4502   250.0400     0.000
     28     1.4250    -0.0000     1.4250    31.2497    14.7000     43.553      8.000 150721.000     60.000    37.7812   -20.0773   -22.9393   120.0962    -0.1480    -3.0001   -63.1934   250.0000   300.0000    76.4770    32.2287     3.0010     1.0017    14.0000    10.0000    17.0000    10.0000    19.0000    20.0000     8.0000    12.0000    -0.0005     0.0005   159.4165   -41.1662     2.8371    45.9498   250.0120     0.000
     29     1.4251    -0.0000     1.4251    30.7503    14.7000     43.208      8.000 150721.000     60.000    37.9885   -20.0773   -23.0668   120.0962    -0.1480    -3.0001   -62.8152   250.0000   300.0000    75.9851    32.7682     3.0010     1.0017    14.0000    10.0000    17.0000    10.0000    19.0000    20.0000     8.0000    12.0000    -0.0005     0.0005   159.4165   -41.1662     2.8373    45.4503   250.0710     0.000
     30     1.4250    -0.0000     1.4250    30.2507    14.7000     42.472     10.000 150721.000     60.000    38.1992   -20.0773   -23.1964   120.0962    -0.1480    -3.0001   -62.4354   250.0000   300.0000    75.4979    33.2975     3.0010     1.0017    14.0000    10.0000    17.0000    10.0000    19.0000    20.0000     8.0000    12.0000    -0.0005     0.0005   159.4165   -41.1662     2.8372    44.9507   250.0560     0.000
     31     1.4250    -0.0000     1.4250    29.7489    14.7000     42.431     12.000 150721.000     60.000    38.4134   -20.0773   -23.3287   120.0962    -0.1480    -3.0001   -62.0538   250.0000   300.0000    75.0149    33.8255     3.0010     1.0017    14.0000    10.0000    17.0000    10.0000    19.0000    20.0000     8.0000    12.0000    -0.0005     0.0005   159.4165   -41.1662     2.8371    44.4490   250.0230     0.000
     32     1.4251    -0.0000     1.4250    29.2509    14.7000     41.772      4.000 150721.000     60.000    38.6313   -20.0773   -23.4624   120.0962    -0.1480    -3.0001   -61.6704   250.0000   300.0000    74.5356    34.3493     3.0010     1.0017    14.0000    10.0000    17.0000    10.0000    19.0000    20.0000     8.0000    12.0000    -0.0005     0.0005   159.4165   -41.1662     2.8372    43.9509   250.0320     0.000
     33     1.4250    -0.0000     1.4250    28.7501    14.7000     41.631      7.000 150721.000     60.000    38.8530   -20.0773   -23.5992   120.0962    -0.1480    -3.0001   -61.2854   250.0000   300.0000    74.0609    34.8676     3.0010     1.0017    14.0000    10.0000    17.0000    10.0000    19.0000    20.0000     8.0000    12.0000    -0.0005     0.0005   159.4165   -41.1662     2.8371    43.4502   250.0600     0.000
     34     1.4251    -0.0000     1.4251    28.2506    14.7000     41.562     11.000 150721.000     60.000    39.0785   -20.0773   -23.7380   120.0962    -0.1480    -3.0001   -60.8985   250.0000   300.0000    73.5897    35.3889     3.0010     1.0017    14.0000    10.0000    17.0000    10.0000    19.0000    20.0000     8.0000    12.0000    -0.0005     0.0005   159.4165   -41.1662     2.8373    42.9506   250.0350     0.000
     35     1.4250    -0.0000     1.4250    27.7502    14.7000     41.443     12.000 150721.000     60.000    39.3079   -20.0773   -23.8795   120.0962    -0.1480    -3.0001   -60.5098   250.0000   300.0000    73.1214    35.8983     3.0010     1.0017    14.0000    10.0000    17.0000    10.0000    19.0000    20.0000     8.0000    12.0000    -0.0005     0.0005   159.4165   -41.1662     2.8371    42.4502   250.0360     0.000
     36     1.4250    -0.0000     1.4251    27.2496    14.7000     40.956     10.000 150721.000     60.000    39.5415   -20.0773   -24.0237   120.0962    -0.1480    -3.0001   -60.1192   250.0000   300.0000    72.6574    36.4109     3.0010     1.0017    14.0000    10.0000    17.0000    10.0000    19.0000    20.0000     8.0000    12.0000    -0.0005     0.0005   159.4165   -41.1662     2.8372    41.9497   250.0900     0.000
     37     1.4251    -0.0000     1.4250    26.7506    14.7000     40.139      8.000 150721.000     60.000    39.7792   -20.0773   -24.1700   120.0962    -0.1480    -3.0001   -59.7267   250.0000   300.0000    72.1956    36.9176     3.0010     1.0017    14.0000    10.0000    17.0000    10.0000    19.0000    20.0000     8.0000    12.0000    -0.0005     0.0005   159.4165   -41.1662     2.8372    41.4506   250.0330     0.000
     38     1.4250    -0.0000     1.4250    26.2496    14.7000     39.169     11.000 150721.000     60.000    40.0214   -20.0773   -24.3197   120.0962    -0.1480    -3.0001   -59.3323   250.0000   300.0000    71.7371    37.4210     3.0010     1.0017    14.0000    10.0000    17.0000    10.0000    19.0000    20.0000     8.0000    12.0000    -0.0005     0.0005   159.4165   -41.1662     2.8371    40.9497   250.0720     0.000
     39     1.4250    -0.0000     1.4250    25.7494    14.7000     38.419      6.000 150721.000     60.000    40.2680   -20.0773   -24.4719   120.0962    -0.1480    -3.0001   -58.9359   250.0000   300.0000    71.2812    37.9239     3.0010     1.0017    14.0000    10.0000    17.0000    10.0000    19.0000    20.0000     8.0000    12.0000    -0.0005     0.0005   159.4165   -41.1662     2.8371    40.4495   250.0030     0.000
     40     1.4250    -0.0000     1.4250    25.2509    14.7000     37.721     12.000 150721.000     60.000    40.5192   -20.0773   -24.6265   120.0962    -0.1480    -3.0001   -58.5375   250.0000   300.0000    70.8282    38.4241     3.0010     1.0017    14.0000    10.0000    17.0000    10.0000    19.0000    20.0000     8.0000    12.0000    -0.0005     0.0005   159.4165   -41.1662     2.8372    39.9509   250.0740     0.000
     41     1.4250    -0.0000     1.4250    24.7498    14.7000     37.448     15.000 150721.000     60.000    40.7751   -20.0773   -24.7849   120.0962    -0.1480    -3.0001   -58.1370   250.0000   300.0000    70.3773    38.9222     3.0010     1.0017    14.0000    10.0000    17.0000    10.0000    19.0000    20.0000     8.0000    12.0000    -0.0005     0.0005   159.4165   -41.1662     2.8371    39.4498   250.1010     0.000
     42     1.4251    -0.0000     1.4251    24.2499    14.7000     37.780      8.000 150721.000     60.000    41.0360   -20.0773   -24.9460   120.0962    -0.1480    -3.0001   -57.7345   250.0000   300.0000    69.9289    39.4210     3.0010     1.0017    14.0000    10.0000    17.0000    10.0000    19.0000    20.0000     8.0000    12.0000    -0.0005     0.0005   159.4165   -41.1662     2.8373    38.9499   249.9740     0.000
     43     1.4250    -0.0000     1.4250    23.7500    14.7000     38.034      5.000 150721.000     60.000    41.3020   -20.0773   -25.1102   120.0962    -0.1480    -3.0001   -57.3298   250.0000   300.0000    69.4824    39.9133     3.0010     1.0017    14.0000    10.0000    17.0000    10.0000    19.0000    20.0000     8.0000    12.0000    -0.0005     0.0005   159.4165   -41.1662     2.8372    38.4500   249.8990     0.000
