# scan = 36
# date = 9/21/2024
# time = 1:56:06 PM
# proposal = 34735
# experiment = Magnons and paramagnon coupling in MnTe
# experiment_number = 816
# command = scan bbr 0 34 2
# builtin_command = scan bbr 0 34 2
# users = Benjamin Frandsen, Songxue Chi, George Yumnam, Huibo Cao, Michael Manley, Raphael Hermann, Eleanor Clements
# local_contact = Eleanor Clements
# scan_title = slit scan with (002)
# monochromator = PG002
# analyzer = Pg002
# sense = -+-
# collimation = 48-40-40-120
# samplename = MnTe
# sampletype = crystal
# samplemosaic = 30.000000
# latticeconstants = 4.134597,4.134597,6.679746,90.000000,90.000000,120.000000
# ubmatrix = -0.273127,-0.149222,-0.030247,-0.056745,-0.024153,0.146560,-0.013326,0.234830,-0.004146
# mode = 0
# plane_normal = -0.052339,0.017444,0.998477
# ubconf = UB21Sep2024_13243PM.ini
# preset_type = normal 
# preset_channel = time
# preset_value = 1.000000
# def_x = bbr
# def_y = detector
# col_headers = 
#   Pt.        bbr       time   detector    monitor        mcu focal_length         m1         m2   mcrystal       marc     mtrans     mfocus       temp     temp_2         s1         s2        sgl        sgu        bbb        bbl        bbt        bab        bal        bar        bat        stl        stu         a1         a2          q          h          k          l         ei         ef          e        vti     sample
      1     0.0000      1.000   3582.000   2660.000      1.059    66.7975   -20.0773   -41.1660   120.0962    -0.1480    -3.0001   -34.2897   250.0000   300.0000    99.0083    41.3623     3.0010     1.0017    38.0000    34.0000    38.0000    38.0000    34.0000    34.0000    38.0000    -0.0005     0.0005   159.4167   -41.1662     1.8813     0.0000    -0.0000     2.0001    14.7001    14.7000     0.0001   249.8530     0.000
      2     2.0000      1.000  13631.000   2604.000      1.037    66.7975   -20.0773   -41.1660   120.0962    -0.1480    -3.0001   -34.2897   250.0000   300.0000    99.0083    41.3623     3.0010     1.0017    38.0000    34.0000    38.0000    38.0000    34.0000    34.0000    38.0000    -0.0005     0.0005   159.4167   -41.1662     1.8813     0.0000    -0.0000     2.0001    14.7001    14.7000     0.0001   250.0530     0.000
      3     4.0000      1.000  16075.000   2525.000      1.005    66.7975   -20.0773   -41.1660   120.0962    -0.1480    -3.0001   -34.2897   250.0000   300.0000    99.0083    41.3623     3.0010     1.0017    38.0000    34.0000    38.0000    38.0000    34.0000    34.0000    38.0000    -0.0005     0.0005   159.4167   -41.1662     1.8813     0.0000    -0.0000     2.0001    14.7001    14.7000     0.0001   250.0530     0.000
      4     6.0000      1.000  16148.000   2688.000      1.070    66.7975   -20.0773   -41.1660   120.0962    -0.1480    -3.0001   -34.2897   250.0000   300.0000    99.0083    41.3623     3.0010     1.0017    38.0000    34.0000    38.0000    38.0000    34.0000    34.0000    38.0000    -0.0005     0.0005   159.4167   -41.1662     1.8813     0.0000    -0.0000     2.0001    14.7001    14.7000     0.0001   250.0130     0.000
      5     8.0000      1.000  16105.000   2634.000      1.049    66.7975   -20.0773   -41.1660   120.0962    -0.1480    -3.0001   -34.2897   250.0000   300.0000    99.0083    41.3623     3.0010     1.0017    38.0000    34.0000    38.0000    38.0000    34.0000    34.0000    38.0000    -0.0005     0.0005   159.4167   -41.1662     1.8813     0.0000    -0.0000     2.0001    14.7001    14.7000     0.0001   250.0040     0.000
      6    10.0000      1.000  16043.000   2593.000      1.032    66.7975   -20.0773   -41.1660   120.0962    -0.1480    -3.0001   -34.2897   250.0000   300.0000    99.0083    41.3623     3.0010     1.0017    38.0000    34.0000    38.0000    38.0000    34.0000    34.0000    38.0000    -0.0005     0.0005   159.4167   -41.1662     1.8813     0.0000    -0.0000     2.0001    14.7001    14.7000     0.0001   249.9250     0.000
      7    12.0000      1.000  16087.000   2633.000      1.048    66.7975   -20.0773   -41.1660   120.0962    -0.1480    -3.0001   -34.2897   250.0000   300.0000    99.0083    41.3623     3.0010     1.0017    38.0000    34.0000    38.0000    38.0000    34.0000    34.0000    38.0000    -0.0005     0.0005   159.4167   -41.1662     1.8813     0.0000    -0.0000     2.0001    14.7001    14.7000     0.0001   250.0570     0.000
      8    14.0000      1.000  16083.000   2554.000      1.017    66.7975   -20.0773   -41.1660   120.0962    -0.1480    -3.0001   -34.2897   250.0000   300.0000    99.0083    41.3623     3.0010     1.0017    38.0000    34.0000    38.0000    38.0000    34.0000    34.0000    38.0000    -0.0005     0.0005   159.4167   -41.1662     1.8813     0.0000    -0.0000     2.0001    14.7001    14.7000     0.0001   250.0600     0.000
      9    16.0000      1.000  16018.000   2668.000      1.062    66.7975   -20.0773   -41.1660   120.0962    -0.1480    -3.0001   -34.2897   250.0000   300.0000    99.0083    41.3623     3.0010     1.0017    38.0000    34.0000    38.0000    38.0000    34.0000    34.0000    38.0000    -0.0005     0.0005   159.4167   -41.1662     1.8813     0.0000    -0.0000     2.0001    14.7001    14.7000     0.0001   250.0370     0.000
     10    18.0000      1.000  15886.000   2568.000      1.022    66.7975   -20.0773   -41.1660   120.0962    -0.1480    -3.0001   -34.2897   250.0000   300.0000    99.0083    41.3623     3.0010     1.0017    38.0000    34.0000    38.0000    38.0000    34.0000    34.0000    38.0000    -0.0005     0.0005   159.4167   -41.1662     1.8813     0.0000    -0.0000     2.0001    14.7001    14.7000     0.0001   249.8870     0.000
     11    20.0000      1.000  16066.000   2632.000      1.048    66.7975   -20.0773   -41.1660   120.0962    -0.1480    -3.0001   -34.2897   250.0000   300.0000    99.0083    41.3623     3.0010     1.0017    38.0000    34.0000    38.0000    38.0000    34.0000    34.0000    38.0000    -0.0005     0.0005   159.4167   -41.1662     1.8813     0.0000    -0.0000     2.0001    14.7001    14.7000     0.0001   249.9360     0.000
     12    22.0000      1.000  16120.000   2604.000      1.037    66.7975   -20.0773   -41.1660   120.0962    -0.1480    -3.0001   -34.2897   250.0000   300.0000    99.0083    41.3623     3.0010     1.0017    38.0000    34.0000    38.0000    38.0000    34.0000    34.0000    38.0000    -0.0005     0.0005   159.4167   -41.1662     1.8813     0.0000    -0.0000     2.0001    14.7001    14.7000     0.0001   250.0500     0.000
     13    24.0000      1.000  15896.000   2529.000      1.007    66.7975   -20.0773   -41.1660   120.0962    -0.1480    -3.0001   -34.2897   250.0000   300.0000    99.0083    41.3623     3.0010     1.0017    38.0000    34.0000    38.0000    38.0000    34.0000    34.0000    38.0000    -0.0005     0.0005   159.4167   -41.1662     1.8813     0.0000    -0.0000     2.0001    14.7001    14.7000     0.0001   250.0470     0.000
     14    26.0000      1.000  16204.000   2618.000      1.042    66.7975   -20.0773   -41.1660   120.0962    -0.1480    -3.0001   -34.2897   250.0000   300.0000    99.0083    41.3623     3.0010     1.0017    38.0000    34.0000    38.0000    38.0000    34.0000    34.0000    38.0000    -0.0005     0.0005   159.4167   -41.1662     1.8813     0.0000    -0.0000     2.0001    14.7001    14.7000     0.0001   250.0840     0.000
     15    28.0000      1.000  16171.000   2657.000      1.058    66.7975   -20.0773   -41.1660   120.0962    -0.1480    -3.0001   -34.2897   250.0000   300.0000    99.0083    41.3623     3.0010     1.0017    38.0000    34.0000    38.0000    38.0000    34.0000    34.0000    38.0000    -0.0005     0.0005   159.4167   -41.1662     1.8813     0.0000    -0.0000     2.0001    14.7001    14.7000     0.0001   249.8810     0.000
     16    30.0000      1.000  16074.000   2561.000      1.020    66.7975   -20.0773   -41.1660   120.0962    -0.1480    -3.0001   -34.2897   250.0000   300.0000    99.0083    41.3623     3.0010     1.0017    38.0000    34.0000    38.0000    38.0000    34.0000    34.0000    38.0000    -0.0005     0.0005   159.4167   -41.1662     1.8813     0.0000    -0.0000     2.0001    14.7001    14.7000     0.0001   249.9970     0.000
     17    32.0000      1.000  16194.000   2639.000      1.051    66.7975   -20.0773   -41.1660   120.0962    -0.1480    -3.0001   -34.2897   250.0000   300.0000    99.0083    41.3623     3.0010     1.0017    38.0000    34.0000    38.0000    38.0000    34.0000    34.0000    38.0000    -0.0005     0.0005   159.4167   -41.1662     1.8813     0.0000    -0.0000     2.0001    14.7001    14.7000     0.0001   250.0460     0.000
     18    34.0000      1.000  16258.000   2579.000      1.027    66.7975   -20.0773   -41.1660   120.0962    -0.1480    -3.0001   -34.2897   250.0000   300.0000    99.0083    41.3623     3.0010     1.0017    38.0000    34.0000    38.0000    38.0000    34.0000    34.0000    38.0000    -0.0005     0.0005   159.4167   -41.1662     1.8813     0.0000    -0.0000     2.0001    14.7001    14.7000     0.0001   250.0080     0.000
# Sum of Counts = 274641
# Center of Mass = 17.924920+/-0.051922
# Full Width Half-Maximum = 19.779434+/-0.039993
# 1:58:06 PM  9/21/2024   scan completed.
