# scan = 50
# date = 9/22/2024
# time = 3:03:30 AM
# proposal = 34735
# experiment = Magnons and paramagnon coupling in MnTe
# experiment_number = 816
# command = scan h 1.3 k 0.0 l 1.3 e 42 1 0.5 ef 14.7 preset mcu 60
# builtin_command = scan h 1.3 k 0.0 l 1.3 e 42 1 0.5 ef 14.7 preset mcu 60
# users = Benjamin Frandsen, Songxue Chi, George Yumnam, Huibo Cao, Michael Manley, Raphael Hermann, Eleanor Clements
# local_contact = Eleanor Clements
# scan_title = H0L scans along (101) to (1.5, 0, 1.5) at H/L = 1.3, mcu = 60, E = 37.5 to 0.5 mev
# monochromator = PG002
# analyzer = Pg002
# sense = -+-
# collimation = 48-40-40-120
# samplename = MnTe
# sampletype = crystal
# samplemosaic = 30.000000
# latticeconstants = 4.134597,4.134597,6.679746,90.000000,90.000000,120.000000
# ubmatrix = -0.273127,-0.149222,-0.030247,-0.056745,-0.024153,0.146560,-0.013326,0.234830,-0.004146
# mode = 0
# plane_normal = -0.052339,0.017444,0.998477
# ubconf = UB21Sep2024_13243PM.ini
# preset_type = normal 
# preset_channel = mcu
# preset_value = 60.000000
# def_x = e
# def_y = detector
# col_headers = 
#   Pt.          h          k          l          e         ef       time   detector    monitor        mcu focal_length         m1         m2   mcrystal       marc     mtrans     mfocus       temp     temp_2         s1         s2        sgl        sgu        bbb        bbl        bbr        bbt        bab        bal        bar        bat        stl        stu         a1         a2          q         ei        vti     sample
      1     1.3002    -0.0000     1.2999    42.0048    14.7000     51.368     59.000 150721.000     60.000    34.0116   -20.0773   -20.6232   120.0962    -0.1480    -3.0001   -70.9646   250.0000   300.0000   101.3510     5.0196     3.0010     1.0017    14.0000    10.0000    17.0000    10.0000    19.0000    20.0000     8.0000    12.0000    -0.0005     0.0005   159.4167   -41.1662     2.5884    56.7048   249.8770     0.000
      2     1.3000    -0.0000     1.3000    41.4988    14.7000     51.458      6.000 150721.000     60.000    34.1626   -20.0773   -20.7168   120.0962    -0.1480    -3.0001   -70.6168   250.0000   300.0000    99.0023     7.3062     3.0010     1.0017    14.0000    10.0000    17.0000    10.0000    19.0000    20.0000     8.0000    12.0000    -0.0005     0.0005   159.4167   -41.1662     2.5882    56.1988   249.9910     0.000
      3     1.3000    -0.0000     1.3000    41.0001    14.7000     51.222     13.000 150721.000     60.000    34.3156   -20.0773   -20.8104   120.0962    -0.1480    -3.0001   -70.2678   250.0000   300.0000    97.2189     9.0361     3.0010     1.0017    14.0000    10.0000    17.0000    10.0000    19.0000    20.0000     8.0000    12.0000    -0.0005     0.0005   159.4167   -41.1662     2.5883    55.7002   249.9080     0.000
      4     1.3000    -0.0000     1.3000    40.4988    14.7000     51.533      9.000 150721.000     60.000    34.4706   -20.0773   -20.9057   120.0962    -0.1480    -3.0001   -69.9176   250.0000   300.0000    95.7184    10.4940     3.0010     1.0017    14.0000    10.0000    17.0000    10.0000    19.0000    20.0000     8.0000    12.0000    -0.0005     0.0005   159.4167   -41.1662     2.5882    55.1988   250.0080     0.000
      5     1.3000    -0.0000     1.3001    39.9998    14.7000     51.502      5.000 150721.000     60.000    34.6278   -20.0773   -21.0019   120.0962    -0.1480    -3.0001   -69.5662   250.0000   300.0000    94.3941    11.7808     3.0010     1.0017    14.0000    10.0000    17.0000    10.0000    19.0000    20.0000     8.0000    12.0000    -0.0005     0.0005   159.4167   -41.1662     2.5883    54.6998   250.0740     0.000
      6     1.3000    -0.0000     1.3002    39.5004    14.7000     51.491     10.000 150721.000     60.000    34.7872   -20.0773   -21.0996   120.0962    -0.1480    -3.0001   -69.2134   250.0000   300.0000    93.1938    12.9470     3.0010     1.0017    14.0000    10.0000    17.0000    10.0000    19.0000    20.0000     8.0000    12.0000    -0.0005     0.0005   159.4167   -41.1662     2.5883    54.2004   250.0930     0.000
      7     1.3000    -0.0000     1.3000    38.9994    14.7000     51.933      3.000 150721.000     60.000    34.9487   -20.0773   -21.1989   120.0962    -0.1480    -3.0001   -68.8594   250.0000   300.0000    92.0859    14.0190     3.0010     1.0017    14.0000    10.0000    17.0000    10.0000    19.0000    20.0000     8.0000    12.0000    -0.0005     0.0005   159.4167   -41.1662     2.5882    53.6994   250.0110     0.000
      8     1.3000    -0.0000     1.3000    38.5009    14.7000     52.029     17.000 150721.000     60.000    35.1126   -20.0773   -21.2991   120.0962    -0.1480    -3.0001   -68.5041   250.0000   300.0000    91.0519    15.0224     3.0010     1.0017    14.0000    10.0000    17.0000    10.0000    19.0000    20.0000     8.0000    12.0000    -0.0005     0.0005   159.4167   -41.1662     2.5883    53.2009   249.9180     0.000
      9     1.3000    -0.0000     1.3001    37.9999    14.7000     51.908     11.000 150721.000     60.000    35.2788   -20.0773   -21.4013   120.0962    -0.1480    -3.0001   -68.1475   250.0000   300.0000    90.0757    15.9696     3.0010     1.0017    14.0000    10.0000    17.0000    10.0000    19.0000    20.0000     8.0000    12.0000    -0.0005     0.0005   159.4167   -41.1662     2.5883    52.6999   250.0300     0.000
     10     1.3000    -0.0000     1.2999    37.4995    14.7000     51.721     13.000 150721.000     60.000    35.4473   -20.0773   -21.5049   120.0962    -0.1480    -3.0001   -67.7895   250.0000   300.0000    89.1491    16.8651     3.0010     1.0017    14.0000    10.0000    17.0000    10.0000    19.0000    20.0000     8.0000    12.0000    -0.0005     0.0005   159.4167   -41.1662     2.5882    52.1995   249.8630     0.000
     11     1.3001    -0.0000     1.3001    37.0012    14.7000     51.177     14.000 150721.000     60.000    35.6183   -20.0773   -21.6095   120.0962    -0.1480    -3.0001   -67.4302   250.0000   300.0000    88.2634    17.7257     3.0010     1.0017    14.0000    10.0000    17.0000    10.0000    19.0000    20.0000     8.0000    12.0000    -0.0005     0.0005   159.4167   -41.1662     2.5884    51.7012   250.0850     0.000
     12     1.3000    -0.0000     1.3000    36.4988    14.7000     50.533     12.000 150721.000     60.000    35.7918   -20.0773   -21.7165   120.0962    -0.1480    -3.0001   -67.0695   250.0000   300.0000    87.4135    18.5479     3.0010     1.0017    14.0000    10.0000    17.0000    10.0000    19.0000    20.0000     8.0000    12.0000    -0.0005     0.0005   159.4167   -41.1662     2.5882    51.1988   250.0330     0.000
     13     1.3000    -0.0000     1.3000    36.0005    14.7000     49.370     14.000 150721.000     60.000    35.9679   -20.0773   -21.8243   120.0962    -0.1480    -3.0001   -66.7074   250.0000   300.0000    86.5944    19.3416     3.0010     1.0017    14.0000    10.0000    17.0000    10.0000    19.0000    20.0000     8.0000    12.0000    -0.0005     0.0005   159.4167   -41.1662     2.5883    50.7005   249.9900     0.000
     14     1.3000    -0.0000     1.3000    35.5002    14.7000     48.237     17.000 150721.000     60.000    36.1466   -20.0773   -21.9341   120.0962    -0.1480    -3.0001   -66.3439   250.0000   300.0000    85.8024    20.1080     3.0010     1.0017    14.0000    10.0000    17.0000    10.0000    19.0000    20.0000     8.0000    12.0000    -0.0005     0.0005   159.4167   -41.1662     2.5883    50.2003   250.0610     0.000
     15     1.3000    -0.0000     1.3000    35.0001    14.7000     46.862     12.000 150721.000     60.000    36.3279   -20.0773   -22.0456   120.0962    -0.1480    -3.0001   -65.9790   250.0000   300.0000    85.0346    20.8507     3.0010     1.0017    14.0000    10.0000    17.0000    10.0000    19.0000    20.0000     8.0000    12.0000    -0.0005     0.0005   159.4167   -41.1662     2.5883    49.7001   250.0930     0.000
     16     1.3000    -0.0000     1.3001    34.5003    14.7000     45.888     17.000 150721.000     60.000    36.5121   -20.0773   -22.1587   120.0962    -0.1480    -3.0001   -65.6125   250.0000   300.0000    84.2884    21.5753     3.0010     1.0017    14.0000    10.0000    17.0000    10.0000    19.0000    20.0000     8.0000    12.0000    -0.0005     0.0005   159.4167   -41.1662     2.5884    49.2003   249.9390     0.000
     17     1.3000    -0.0000     1.3000    33.9988    14.7000     45.120      8.000 150721.000     60.000    36.6990   -20.0773   -22.2739   120.0962    -0.1480    -3.0001   -65.2446   250.0000   300.0000    83.5610    22.2751     3.0010     1.0017    14.0000    10.0000    17.0000    10.0000    19.0000    20.0000     8.0000    12.0000    -0.0005     0.0005   159.4167   -41.1662     2.5882    48.6988   250.0230     0.000
     18     1.3000    -0.0000     1.3001    33.5008    14.7000     44.468     13.000 150721.000     60.000    36.8889   -20.0773   -22.3902   120.0962    -0.1480    -3.0001   -64.8752   250.0000   300.0000    82.8517    22.9629     3.0010     1.0017    14.0000    10.0000    17.0000    10.0000    19.0000    20.0000     8.0000    12.0000    -0.0005     0.0005   159.4167   -41.1662     2.5883    48.2008   250.1060     0.000
     19     1.3000    -0.0000     1.3001    33.0001    14.7000     44.479     16.000 150721.000     60.000    37.0817   -20.0773   -22.5089   120.0962    -0.1480    -3.0001   -64.5042   250.0000   300.0000    82.1580    23.6338     3.0010     1.0017    14.0000    10.0000    17.0000    10.0000    19.0000    20.0000     8.0000    12.0000    -0.0005     0.0005   159.4167   -41.1662     2.5883    47.7001   250.0250     0.000
     20     1.3000    -0.0000     1.3000    32.5000    14.7000     44.141     18.000 150721.000     60.000    37.2776   -20.0773   -22.6294   120.0962    -0.1480    -3.0001   -64.1317   250.0000   300.0000    81.4788    24.2879     3.0010     1.0017    14.0000    10.0000    17.0000    10.0000    19.0000    20.0000     8.0000    12.0000    -0.0005     0.0005   159.4167   -41.1662     2.5882    47.2000   250.0080     0.000
     21     1.3000    -0.0000     1.3000    31.9994    14.7000     43.963     15.000 150721.000     60.000    37.4766   -20.0773   -22.7520   120.0962    -0.1480    -3.0001   -63.7576   250.0000   300.0000    80.8124    24.9328     3.0010     1.0017    14.0000    10.0000    17.0000    10.0000    19.0000    20.0000     8.0000    12.0000    -0.0005     0.0005   159.4167   -41.1662     2.5883    46.6994   250.0560     0.000
     22     1.3000    -0.0000     1.3000    31.5007    14.7000     43.611     10.000 150721.000     60.000    37.6789   -20.0773   -22.8761   120.0962    -0.1480    -3.0001   -63.3819   250.0000   300.0000    80.1587    25.5633     3.0010     1.0017    14.0000    10.0000    17.0000    10.0000    19.0000    20.0000     8.0000    12.0000    -0.0005     0.0005   159.4167   -41.1662     2.5883    46.2007   250.0580     0.000
     23     1.3000    -0.0000     1.3001    30.9986    14.7000     43.120     11.000 150721.000     60.000    37.8844   -20.0773   -23.0031   120.0962    -0.1480    -3.0001   -63.0045   250.0000   300.0000    79.5157    26.1853     3.0010     1.0017    14.0000    10.0000    17.0000    10.0000    19.0000    20.0000     8.0000    12.0000    -0.0005     0.0005   159.4167   -41.1662     2.5883    45.6986   250.0220     0.000
     24     1.3000    -0.0000     1.3001    30.5001    14.7000     42.920     12.000 150721.000     60.000    38.0934   -20.0773   -23.1314   120.0962    -0.1480    -3.0001   -62.6255   250.0000   300.0000    78.8836    26.7948     3.0010     1.0017    14.0000    10.0000    17.0000    10.0000    19.0000    20.0000     8.0000    12.0000    -0.0005     0.0005   159.4167   -41.1662     2.5883    45.2001   250.0530     0.000
     25     1.3001    -0.0000     1.3001    30.0002    14.7000     42.442     11.000 150721.000     60.000    38.3059   -20.0773   -23.2622   120.0962    -0.1480    -3.0001   -62.2448   250.0000   300.0000    78.2604    27.3970     3.0010     1.0017    14.0000    10.0000    17.0000    10.0000    19.0000    20.0000     8.0000    12.0000    -0.0005     0.0005   159.4167   -41.1662     2.5884    44.7002   250.0730     0.000
     26     1.3001    -0.0000     1.3001    29.5002    14.7000     42.068      5.000 150721.000     60.000    38.5219   -20.0773   -23.3952   120.0962    -0.1480    -3.0001   -61.8623   250.0000   300.0000    77.6464    27.9883     3.0010     1.0017    14.0000    10.0000    17.0000    10.0000    19.0000    20.0000     8.0000    12.0000    -0.0005     0.0005   159.4167   -41.1662     2.5884    44.2002   250.0510     0.000
     27     1.3000    -0.0000     1.3000    28.9999    14.7000     41.926      6.000 150721.000     60.000    38.7417   -20.0773   -23.5306   120.0962    -0.1480    -3.0001   -61.4781   250.0000   300.0000    77.0408    28.5698     3.0010     1.0017    14.0000    10.0000    17.0000    10.0000    19.0000    20.0000     8.0000    12.0000    -0.0005     0.0005   159.4167   -41.1662     2.5883    43.7000   250.0450     0.000
     28     1.3000    -0.0000     1.3000    28.5004    14.7000     41.889     16.000 150721.000     60.000    38.9652   -20.0773   -23.6683   120.0962    -0.1480    -3.0001   -61.0922   250.0000   300.0000    76.4424    29.1464     3.0010     1.0017    14.0000    10.0000    17.0000    10.0000    19.0000    20.0000     8.0000    12.0000    -0.0005     0.0005   159.4167   -41.1662     2.5883    43.2004   249.9830     0.000
     29     1.3000    -0.0000     1.3000    28.0001    14.7000     41.559     10.000 150721.000     60.000    39.1927   -20.0773   -23.8085   120.0962    -0.1480    -3.0001   -60.7044   250.0000   300.0000    75.8513    29.7151     3.0010     1.0017    14.0000    10.0000    17.0000    10.0000    19.0000    20.0000     8.0000    12.0000    -0.0005     0.0005   159.4167   -41.1662     2.5883    42.7001   250.0310     0.000
     30     1.3000    -0.0000     1.3000    27.5001    14.7000     41.199     12.000 150721.000     60.000    39.4242   -20.0773   -23.9512   120.0962    -0.1480    -3.0001   -60.3147   250.0000   300.0000    75.2665    30.2759     3.0010     1.0017    14.0000    10.0000    17.0000    10.0000    19.0000    20.0000     8.0000    12.0000    -0.0005     0.0005   159.4167   -41.1662     2.5882    42.2001   250.0990     0.000
     31     1.3000    -0.0000     1.3000    27.0003    14.7000     40.154     14.000 150721.000     60.000    39.6598   -20.0773   -24.0965   120.0962    -0.1480    -3.0001   -59.9232   250.0000   300.0000    74.6886    30.8332     3.0010     1.0017    14.0000    10.0000    17.0000    10.0000    19.0000    20.0000     8.0000    12.0000    -0.0005     0.0005   159.4167   -41.1662     2.5883    41.7003   250.0450     0.000
     32     1.3001    -0.0000     1.3001    26.4998    14.7000     39.227     12.000 150721.000     60.000    39.8998   -20.0773   -24.2446   120.0962    -0.1480    -3.0001   -59.5297   250.0000   300.0000    74.1155    31.3865     3.0010     1.0017    14.0000    10.0000    17.0000    10.0000    19.0000    20.0000     8.0000    12.0000    -0.0005     0.0005   159.4167   -41.1662     2.5884    41.1998   250.0540     0.000
     33     1.3000    -0.0000     1.3000    25.9997    14.7000     38.746     17.000 150721.000     60.000    40.1441   -20.0773   -24.3954   120.0962    -0.1480    -3.0001   -59.1343   250.0000   300.0000    73.5484    31.9296     3.0010     1.0017    14.0000    10.0000    17.0000    10.0000    19.0000    20.0000     8.0000    12.0000    -0.0005     0.0005   159.4167   -41.1662     2.5883    40.6997   249.9890     0.000
     34     1.3000    -0.0000     1.3000    25.5007    14.7000     38.096      8.000 150721.000     60.000    40.3930   -20.0773   -24.5487   120.0962    -0.1480    -3.0001   -58.7370   250.0000   300.0000    72.9857    32.4690     3.0010     1.0017    14.0000    10.0000    17.0000    10.0000    19.0000    20.0000     8.0000    12.0000    -0.0005     0.0005   159.4167   -41.1662     2.5883    40.2007   250.0550     0.000
     35     1.3001    -0.0000     1.3001    25.0011    14.7000     37.598     16.000 150721.000     60.000    40.6465   -20.0773   -24.7051   120.0962    -0.1480    -3.0001   -58.3375   250.0000   300.0000    72.4285    33.0066     3.0010     1.0017    14.0000    10.0000    17.0000    10.0000    19.0000    20.0000     8.0000    12.0000    -0.0005     0.0005   159.4167   -41.1662     2.5884    39.7012   250.0740     0.000
     36     1.3000    -0.0000     1.3000    24.4997    14.7000     37.799      8.000 150721.000     60.000    40.9049   -20.0773   -24.8651   120.0962    -0.1480    -3.0001   -57.9360   250.0000   300.0000    71.8749    33.5355     3.0010     1.0017    14.0000    10.0000    17.0000    10.0000    19.0000    20.0000     8.0000    12.0000    -0.0005     0.0005   159.4167   -41.1662     2.5883    39.1997   249.8600     0.000
     37     1.3000    -0.0000     1.2999    24.0000    14.7000     37.985     11.000 150721.000     60.000    41.1683   -20.0773   -25.0277   120.0962    -0.1480    -3.0001   -57.5324   250.0000   300.0000    71.3251    34.0601     3.0010     1.0017    14.0000    10.0000    17.0000    10.0000    19.0000    20.0000     8.0000    12.0000    -0.0005     0.0005   159.4167   -41.1662     2.5882    38.7000   249.9270     0.000
     38     1.3000    -0.0000     1.3001    23.4995    14.7000     38.565     14.000 150721.000     60.000    41.4369   -20.0773   -25.1938   120.0962    -0.1480    -3.0001   -57.1267   250.0000   300.0000    70.7800    34.5863     3.0010     1.0017    14.0000    10.0000    17.0000    10.0000    19.0000    20.0000     8.0000    12.0000    -0.0005     0.0005   159.4167   -41.1662     2.5883    38.1995   250.0920     0.000
     39     1.3000    -0.0000     1.3000    23.0002    14.7000     39.400     10.000 150721.000     60.000    41.7108   -20.0773   -25.3628   120.0962    -0.1480    -3.0001   -56.7188   250.0000   300.0000    70.2376    35.1042     3.0010     1.0017    14.0000    10.0000    17.0000    10.0000    19.0000    20.0000     8.0000    12.0000    -0.0005     0.0005   159.4167   -41.1662     2.5883    37.7002   250.0190     0.000
     40     1.3001    -0.0000     1.3001    22.5004    14.7000     40.239      4.000 150721.000     60.000    41.9902   -20.0773   -25.5355   120.0962    -0.1480    -3.0001   -56.3086   250.0000   300.0000    69.6988    35.6216     3.0010     1.0017    14.0000    10.0000    17.0000    10.0000    19.0000    20.0000     8.0000    12.0000    -0.0005     0.0005   159.4167   -41.1662     2.5884    37.2004   250.0630     0.000
     41     1.3000    -0.0000     1.3000    21.9997    14.7000     40.900     13.000 150721.000     60.000    42.2752   -20.0773   -25.7121   120.0962    -0.1480    -3.0001   -55.8961   250.0000   300.0000    69.1626    36.1334     3.0010     1.0017    14.0000    10.0000    17.0000    10.0000    19.0000    20.0000     8.0000    12.0000    -0.0005     0.0005   159.4167   -41.1662     2.5883    36.6997   249.9890     0.000
     42     1.3000    -0.0000     1.3000    21.4994    14.7000     41.425     18.000 150721.000     60.000    42.5662   -20.0773   -25.8922   120.0962    -0.1480    -3.0001   -55.4813   250.0000   300.0000    68.6294    36.6411     3.0010     1.0017    14.0000    10.0000    17.0000    10.0000    19.0000    20.0000     8.0000    12.0000    -0.0005     0.0005   159.4167   -41.1662     2.5882    36.1994   250.0770     0.000
     43     1.3001    -0.0000     1.3000    21.0006    14.7000     41.791      7.000 150721.000     60.000    42.8632   -20.0773   -26.0756   120.0962    -0.1480    -3.0001   -55.0642   250.0000   300.0000    68.0987    37.1507     3.0010     1.0017    14.0000    10.0000    17.0000    10.0000    19.0000    20.0000     8.0000    12.0000    -0.0005     0.0005   159.4167   -41.1662     2.5883    35.7006   250.0060     0.000
