# scan = 68
# date = 9/22/2024
# time = 9:20:47 PM
# proposal = 34735
# experiment = Magnons and paramagnon coupling in MnTe
# experiment_number = 816
# command = scan h 1.125 k 0.0 l 1.125 e 33.75 1.25 0.5 ef 14.7 preset mcu 60
# builtin_command = scan h 1.125 k 0.0 l 1.125 e 33.75 1.25 0.5 ef 14.7 preset mcu 60
# users = Benjamin Frandsen, Songxue Chi, George Yumnam, Huibo Cao, Michael Manley, Raphael Hermann, Eleanor Clements
# local_contact = Eleanor Clements
# scan_title = H0L scans along (101) to (1.5, 0, 1.5) at H/L = 1.125, mcu = 60, E = 33.75 to 1.25 mev
# monochromator = PG002
# analyzer = Pg002
# sense = -+-
# collimation = 48-40-40-120
# samplename = MnTe
# sampletype = crystal
# samplemosaic = 30.000000
# latticeconstants = 4.134597,4.134597,6.679746,90.000000,90.000000,120.000000
# ubmatrix = -0.273127,-0.149222,-0.030247,-0.056745,-0.024153,0.146560,-0.013326,0.234830,-0.004146
# mode = 0
# plane_normal = -0.052339,0.017444,0.998477
# ubconf = UB21Sep2024_13243PM.ini
# preset_type = normal 
# preset_channel = mcu
# preset_value = 60.000000
# def_x = e
# def_y = detector
# col_headers = 
#   Pt.          h          k          l          e         ef       time   detector    monitor        mcu focal_length         m1         m2   mcrystal       marc     mtrans     mfocus       temp     temp_2         s1         s2        sgl        sgu        bbb        bbl        bbr        bbt        bab        bal        bar        bat        stl        stu         a1         a2          q         ei        vti     sample
      1     1.1251    -0.0000     1.1250    33.7532    14.7000     46.210     11.000 150721.000     60.000    36.7936   -20.0773   -22.3310   120.0962    -0.1480    -3.0001   -65.0601   250.0000   300.0000    96.1064     8.7422     3.0010     1.0017    14.0000    10.0000    17.0000    10.0000    19.0000    20.0000     8.0000    12.0000    -0.0005     0.0005   159.4165   -41.1662     2.2400    48.4532   249.8400     0.000
      2     1.1250    -0.0000     1.1250    33.2499    14.7000     45.178     12.000 150721.000     60.000    36.9849   -20.0773   -22.4494   120.0962    -0.1480    -3.0001   -64.6899   250.0000   300.0000    94.3285    10.2304     3.0010     1.0017    14.0000    10.0000    17.0000    10.0000    19.0000    20.0000     8.0000    12.0000    -0.0005     0.0005   159.4165   -41.1662     2.2398    47.9499   250.0480     0.000
      3     1.1250    -0.0000     1.1250    32.7489    14.7000     44.678     12.000 150721.000     60.000    37.1793   -20.0773   -22.5692   120.0962    -0.1480    -3.0001   -64.3182   250.0000   300.0000    92.7659    11.5342     3.0010     1.0017    14.0000    10.0000    17.0000    10.0000    19.0000    20.0000     8.0000    12.0000    -0.0005     0.0005   159.4165   -41.1662     2.2398    47.4489   250.0320     0.000
      4     1.1250    -0.0000     1.1250    32.2503    14.7000     44.251      8.000 150721.000     60.000    37.3767   -20.0773   -22.6903   120.0962    -0.1480    -3.0001   -63.9448   250.0000   300.0000    91.3539    12.7109     3.0010     1.0017    14.0000    10.0000    17.0000    10.0000    19.0000    20.0000     8.0000    12.0000    -0.0005     0.0005   159.4165   -41.1662     2.2399    46.9503   249.9950     0.000
      5     1.1250    -0.0000     1.1251    31.7502    14.7000     43.735     16.000 150721.000     60.000    37.5773   -20.0773   -22.8138   120.0962    -0.1480    -3.0001   -63.5699   250.0000   300.0000    90.0506    13.7948     3.0010     1.0017    14.0000    10.0000    17.0000    10.0000    19.0000    20.0000     8.0000    12.0000    -0.0005     0.0005   159.4165   -41.1662     2.2399    46.4502   250.0200     0.000
      6     1.1250    -0.0000     1.1251    31.2499    14.7000     43.536      7.000 150721.000     60.000    37.7812   -20.0773   -22.9393   120.0962    -0.1480    -3.0001   -63.1934   250.0000   300.0000    88.8345    14.8042     3.0010     1.0017    14.0000    10.0000    17.0000    10.0000    19.0000    20.0000     8.0000    12.0000    -0.0005     0.0005   159.4165   -41.1662     2.2399    45.9500   250.0950     0.000
      7     1.1250    -0.0000     1.1250    30.7501    14.7000     42.978     11.000 150721.000     60.000    37.9885   -20.0773   -23.0668   120.0962    -0.1480    -3.0001   -62.8152   250.0000   300.0000    87.6868    15.7527     3.0010     1.0017    14.0000    10.0000    17.0000    10.0000    19.0000    20.0000     8.0000    12.0000    -0.0005     0.0005   159.4165   -41.1662     2.2399    45.4501   249.9560     0.000
      8     1.1250    -0.0000     1.1250    30.2507    14.7000     42.543     11.000 150721.000     60.000    38.1992   -20.0773   -23.1964   120.0962    -0.1480    -3.0001   -62.4354   250.0000   300.0000    86.5965    16.6523     3.0010     1.0017    14.0000    10.0000    17.0000    10.0000    19.0000    20.0000     8.0000    12.0000    -0.0005     0.0005   159.4165   -41.1662     2.2398    44.9507   249.8670     0.000
      9     1.1250    -0.0000     1.1251    29.7489    14.7000     42.266     17.000 150721.000     60.000    38.4134   -20.0773   -23.3287   120.0962    -0.1480    -3.0001   -62.0538   250.0000   300.0000    85.5539    17.5137     3.0010     1.0017    14.0000    10.0000    17.0000    10.0000    19.0000    20.0000     8.0000    12.0000    -0.0005     0.0005   159.4165   -41.1662     2.2398    44.4490   249.8700     0.000
     10     1.1250    -0.0000     1.1250    29.2511    14.7000     42.096     17.000 150721.000     60.000    38.6313   -20.0773   -23.4624   120.0962    -0.1480    -3.0001   -61.6704   250.0000   300.0000    84.5516    18.3373     3.0010     1.0017    14.0000    10.0000    17.0000    10.0000    19.0000    20.0000     8.0000    12.0000    -0.0005     0.0005   159.4165   -41.1662     2.2399    43.9511   249.8970     0.000
     11     1.1250    -0.0000     1.1251    28.7494    14.7000     42.056      8.000 150721.000     60.000    38.8530   -20.0773   -23.5993   120.0962    -0.1480    -3.0001   -61.2854   250.0000   300.0000    83.5851    19.1326     3.0010     1.0017    14.0000    10.0000    17.0000    10.0000    19.0000    20.0000     8.0000    12.0000    -0.0005     0.0005   159.4165   -41.1662     2.2399    43.4495   249.8900     0.000
     12     1.1250    -0.0000     1.1250    28.2501    14.7000     41.659     20.000 150721.000     60.000    39.0785   -20.0773   -23.7381   120.0962    -0.1480    -3.0001   -60.8985   250.0000   300.0000    82.6499    19.8960     3.0010     1.0017    14.0000    10.0000    17.0000    10.0000    19.0000    20.0000     8.0000    12.0000    -0.0005     0.0005   159.4165   -41.1662     2.2398    42.9501   249.9880     0.000
     13     1.1250    -0.0000     1.1250    27.7504    14.7000     41.060     22.000 150721.000     60.000    39.3079   -20.0773   -23.8795   120.0962    -0.1480    -3.0001   -60.5098   250.0000   300.0000    81.7410    20.6379     3.0010     1.0017    14.0000    10.0000    17.0000    10.0000    19.0000    20.0000     8.0000    12.0000    -0.0005     0.0005   159.4165   -41.1662     2.2399    42.4504   250.0320     0.000
     14     1.1250    -0.0000     1.1251    27.2491    14.7000     40.773     19.000 150721.000     60.000    39.5415   -20.0773   -24.0238   120.0962    -0.1480    -3.0001   -60.1192   250.0000   300.0000    80.8570    21.3598     3.0010     1.0017    14.0000    10.0000    17.0000    10.0000    19.0000    20.0000     8.0000    12.0000    -0.0005     0.0005   159.4165   -41.1662     2.2398    41.9492   250.0610     0.000
     15     1.1250    -0.0000     1.1249    26.7508    14.7000     39.730     13.000 150721.000     60.000    39.7792   -20.0773   -24.1700   120.0962    -0.1480    -3.0001   -59.7267   250.0000   300.0000    79.9943    22.0582     3.0010     1.0017    14.0000    10.0000    17.0000    10.0000    19.0000    20.0000     8.0000    12.0000    -0.0005     0.0005   159.4165   -41.1662     2.2398    41.4508   249.9640     0.000
     16     1.1250    -0.0000     1.1250    26.2495    14.7000     39.147     11.000 150721.000     60.000    40.0214   -20.0773   -24.3197   120.0962    -0.1480    -3.0001   -59.3323   250.0000   300.0000    79.1504    22.7450     3.0010     1.0017    14.0000    10.0000    17.0000    10.0000    19.0000    20.0000     8.0000    12.0000    -0.0005     0.0005   159.4165   -41.1662     2.2399    40.9495   249.9200     0.000
     17     1.1250    -0.0000     1.1251    25.7501    14.7000     38.220     13.000 150721.000     60.000    40.2680   -20.0773   -24.4717   120.0962    -0.1480    -3.0001   -58.9359   250.0000   300.0000    78.3247    23.4139     3.0010     1.0017    14.0000    10.0000    17.0000    10.0000    19.0000    20.0000     8.0000    12.0000    -0.0005     0.0005   159.4165   -41.1662     2.2399    40.4501   249.8620     0.000
     18     1.1250    -0.0000     1.1250    25.2514    14.7000     37.827     15.000 150721.000     60.000    40.5192   -20.0773   -24.6264   120.0962    -0.1480    -3.0001   -58.5375   250.0000   300.0000    77.5148    24.0643     3.0010     1.0017    14.0000    10.0000    17.0000    10.0000    19.0000    20.0000     8.0000    12.0000    -0.0005     0.0005   159.4165   -41.1662     2.2399    39.9514   249.9130     0.000
     19     1.1250    -0.0000     1.1250    24.7497    14.7000     37.749     10.000 150721.000     60.000    40.7751   -20.0773   -24.7849   120.0962    -0.1480    -3.0001   -58.1370   250.0000   300.0000    76.7185    24.7058     3.0010     1.0017    14.0000    10.0000    17.0000    10.0000    19.0000    20.0000     8.0000    12.0000    -0.0005     0.0005   159.4165   -41.1662     2.2398    39.4497   250.0940     0.000
     20     1.1250    -0.0000     1.1250    24.2499    14.7000     37.841     18.000 150721.000     60.000    41.0360   -20.0773   -24.9460   120.0962    -0.1480    -3.0001   -57.7345   250.0000   300.0000    75.9355    25.3344     3.0010     1.0017    14.0000    10.0000    17.0000    10.0000    19.0000    20.0000     8.0000    12.0000    -0.0005     0.0005   159.4165   -41.1662     2.2399    38.9499   250.0290     0.000
     21     1.1250    -0.0000     1.1251    23.7500    14.7000     38.125     14.000 150721.000     60.000    41.3020   -20.0773   -25.1102   120.0962    -0.1480    -3.0001   -57.3298   250.0000   300.0000    75.1645    25.9517     3.0010     1.0017    14.0000    10.0000    17.0000    10.0000    19.0000    20.0000     8.0000    12.0000    -0.0005     0.0005   159.4165   -41.1662     2.2399    38.4500   250.0540     0.000
     22     1.1250    -0.0000     1.1250    23.2500    14.7000     39.083     12.000 150721.000     60.000    41.5732   -20.0773   -25.2778   120.0962    -0.1480    -3.0001   -56.9230   250.0000   300.0000    74.4044    26.5570     3.0010     1.0017    14.0000    10.0000    17.0000    10.0000    19.0000    20.0000     8.0000    12.0000    -0.0005     0.0005   159.4165   -41.1662     2.2399    37.9500   250.0260     0.000
     23     1.1250    -0.0000     1.1251    22.7497    14.7000     40.029     16.000 150721.000     60.000    41.8497   -20.0773   -25.4489   120.0962    -0.1480    -3.0001   -56.5140   250.0000   300.0000    73.6541    27.1540     3.0010     1.0017    14.0000    10.0000    17.0000    10.0000    19.0000    20.0000     8.0000    12.0000    -0.0005     0.0005   159.4165   -41.1662     2.2399    37.4497   250.0350     0.000
     24     1.1250    -0.0000     1.1250    22.2503    14.7000     40.646     16.000 150721.000     60.000    42.1320   -20.0773   -25.6232   120.0962    -0.1480    -3.0001   -56.1026   250.0000   300.0000    72.9124    27.7412     3.0010     1.0017    14.0000    10.0000    17.0000    10.0000    19.0000    20.0000     8.0000    12.0000    -0.0005     0.0005   159.4165   -41.1662     2.2399    36.9504   250.0690     0.000
     25     1.1250    -0.0000     1.1250    21.7503    14.7000     41.286     11.000 150721.000     60.000    42.4200   -20.0773   -25.8014   120.0962    -0.1480    -3.0001   -55.6890   250.0000   300.0000    72.1794    28.3208     3.0010     1.0017    14.0000    10.0000    17.0000    10.0000    19.0000    20.0000     8.0000    12.0000    -0.0005     0.0005   159.4165   -41.1662     2.2399    36.4503   250.1010     0.000
     26     1.1250    -0.0000     1.1250    21.2496    14.7000     41.645     15.000 150721.000     60.000    42.7139   -20.0773   -25.9836   120.0962    -0.1480    -3.0001   -55.2730   250.0000   300.0000    71.4540    28.8909     3.0010     1.0017    14.0000    10.0000    17.0000    10.0000    19.0000    20.0000     8.0000    12.0000    -0.0005     0.0005   159.4165   -41.1662     2.2398    35.9496   250.0510     0.000
     27     1.1250    -0.0000     1.1250    20.7501    14.7000     41.583     10.000 150721.000     60.000    43.0141   -20.0773   -26.1692   120.0962    -0.1480    -3.0001   -54.8546   250.0000   300.0000    70.7351    29.4564     3.0010     1.0017    14.0000    10.0000    17.0000    10.0000    19.0000    20.0000     8.0000    12.0000    -0.0005     0.0005   159.4165   -41.1662     2.2399    35.4501   250.0980     0.000
     28     1.1251    -0.0000     1.1251    20.2504    14.7000     41.800     18.000 150721.000     60.000    43.3207   -20.0773   -26.3590   120.0962    -0.1480    -3.0001   -54.4338   250.0000   300.0000    70.0228    30.0141     3.0010     1.0017    14.0000    10.0000    17.0000    10.0000    19.0000    20.0000     8.0000    12.0000    -0.0005     0.0005   159.4165   -41.1662     2.2399    34.9504   250.0690     0.000
     29     1.1250    -0.0000     1.1250    19.7495    14.7000     42.095     18.000 150721.000     60.000    43.6339   -20.0773   -26.5534   120.0962    -0.1480    -3.0001   -54.0105   250.0000   300.0000    69.3158    30.5633     3.0010     1.0017    14.0000    10.0000    17.0000    10.0000    19.0000    20.0000     8.0000    12.0000    -0.0005     0.0005   159.4165   -41.1662     2.2398    34.4496   250.0540     0.000
     30     1.1250    -0.0000     1.1250    19.2499    14.7000     42.969     24.000 150721.000     60.000    43.9541   -20.0773   -26.7516   120.0962    -0.1480    -3.0001   -53.5845   250.0000   300.0000    68.6145    31.1084     3.0010     1.0017    14.0000    10.0000    17.0000    10.0000    19.0000    20.0000     8.0000    12.0000    -0.0005     0.0005   159.4165   -41.1662     2.2399    33.9499   250.0880     0.000
     31     1.1250    -0.0000     1.1250    18.7498    14.7000     43.664     15.000 150721.000     60.000    44.2813   -20.0773   -26.9546   120.0962    -0.1480    -3.0001   -53.1560   250.0000   300.0000    67.9175    31.6470     3.0010     1.0017    14.0000    10.0000    17.0000    10.0000    19.0000    20.0000     8.0000    12.0000    -0.0005     0.0005   159.4165   -41.1662     2.2398    33.4499   250.0480     0.000
     32     1.1251    -0.0000     1.1250    18.2503    14.7000     44.285     25.000 150721.000     60.000    44.6161   -20.0773   -27.1621   120.0962    -0.1480    -3.0001   -52.7248   250.0000   300.0000    67.2244    32.1824     3.0010     1.0017    14.0000    10.0000    17.0000    10.0000    19.0000    20.0000     8.0000    12.0000    -0.0005     0.0005   159.4165   -41.1662     2.2399    32.9503   250.0200     0.000
     33     1.1250    -0.0000     1.1250    17.7503    14.7000     44.699     18.000 150721.000     60.000    44.9585   -20.0773   -27.3745   120.0962    -0.1480    -3.0001   -52.2908   250.0000   300.0000    66.5355    32.7101     3.0010     1.0017    14.0000    10.0000    17.0000    10.0000    19.0000    20.0000     8.0000    12.0000    -0.0005     0.0005   159.4165   -41.1662     2.2399    32.4504   250.0250     0.000
     34     1.1250    -0.0000     1.1251    17.2494    14.7000     45.425     16.000 150721.000     60.000    45.3089   -20.0773   -27.5925   120.0962    -0.1480    -3.0001   -51.8540   250.0000   300.0000    65.8503    33.2348     3.0010     1.0017    14.0000    10.0000    17.0000    10.0000    19.0000    20.0000     8.0000    12.0000    -0.0005     0.0005   159.4165   -41.1662     2.2399    31.9494   250.0440     0.000
     35     1.1250    -0.0000     1.1250    16.7500    14.7000     45.698     28.000 150721.000     60.000    45.6676   -20.0773   -27.8151   120.0962    -0.1480    -3.0001   -51.4143   250.0000   300.0000    65.1665    33.7535     3.0010     1.0017    14.0000    10.0000    17.0000    10.0000    19.0000    20.0000     8.0000    12.0000    -0.0005     0.0005   159.4165   -41.1662     2.2399    31.4501   249.9270     0.000
     36     1.1250    -0.0000     1.1250    16.2500    14.7000     45.805     27.000 150721.000     60.000    46.0351   -20.0773   -28.0434   120.0962    -0.1480    -3.0001   -50.9717   250.0000   300.0000    64.4868    34.2676     3.0010     1.0017    14.0000    10.0000    17.0000    10.0000    19.0000    20.0000     8.0000    12.0000    -0.0005     0.0005   159.4165   -41.1662     2.2398    30.9500   249.9320     0.000
     37     1.1250    -0.0000     1.1251    15.7503    14.7000     46.296     28.000 150721.000     60.000    46.4115   -20.0773   -28.2774   120.0962    -0.1480    -3.0001   -50.5260   250.0000   300.0000    63.8086    34.7814     3.0010     1.0017    14.0000    10.0000    17.0000    10.0000    19.0000    20.0000     8.0000    12.0000    -0.0005     0.0005   159.4165   -41.1662     2.2399    30.4503   250.0850     0.000
     38     1.1250    -0.0000     1.1250    15.2500    14.7000     46.736     30.000 150721.000     60.000    46.7972   -20.0773   -28.5175   120.0962    -0.1480    -3.0001   -50.0773   250.0000   300.0000    63.1315    35.2887     3.0010     1.0017    14.0000    10.0000    17.0000    10.0000    19.0000    20.0000     8.0000    12.0000    -0.0005     0.0005   159.4165   -41.1662     2.2399    29.9500   250.0610     0.000
     39     1.1251    -0.0000     1.1251    14.7497    14.7000     46.837     23.000 150721.000     60.000    47.1929   -20.0773   -28.7639   120.0962    -0.1480    -3.0001   -49.6254   250.0000   300.0000    62.4567    35.7946     3.0010     1.0017    14.0000    10.0000    17.0000    10.0000    19.0000    20.0000     8.0000    12.0000    -0.0005     0.0005   159.4165   -41.1662     2.2399    29.4498   250.0750     0.000
     40     1.1250    -0.0000     1.1250    14.2504    14.7000     45.907     36.000 150721.000     60.000    47.5986   -20.0773   -29.0162   120.0962    -0.1480    -3.0001   -49.1702   250.0000   300.0000    61.7828    36.2930     3.0010     1.0017    14.0000    10.0000    17.0000    10.0000    19.0000    20.0000     8.0000    12.0000    -0.0005     0.0005   159.4165   -41.1662     2.2399    28.9505   249.9170     0.000
     41     1.1251    -0.0000     1.1251    13.7496    14.7000     44.465     35.000 150721.000     60.000    48.0151   -20.0773   -29.2762   120.0962    -0.1480    -3.0001   -48.7117   250.0000   300.0000    61.1091    36.7934     3.0010     1.0017    14.0000    10.0000    17.0000    10.0000    19.0000    20.0000     8.0000    12.0000    -0.0005     0.0005   159.4165   -41.1662     2.2399    28.4496   250.0640     0.000
     42     1.1250    -0.0000     1.1250    13.2501    14.7000     44.016     25.000 150721.000     60.000    48.4427   -20.0773   -29.5425   120.0962    -0.1480    -3.0001   -48.2497   250.0000   300.0000    60.4356    37.2848     3.0010     1.0017    14.0000    10.0000    17.0000    10.0000    19.0000    20.0000     8.0000    12.0000    -0.0005     0.0005   159.4165   -41.1662     2.2398    27.9501   250.0940     0.000
     43     1.1251    -0.0000     1.1251    12.7499    14.7000     45.138     32.000 150721.000     60.000    48.8819   -20.0773   -29.8167   120.0962    -0.1480    -3.0001   -47.7842   250.0000   300.0000    59.7630    37.7802     3.0010     1.0017    14.0000    10.0000    17.0000    10.0000    19.0000    20.0000     8.0000    12.0000    -0.0005     0.0005   159.4165   -41.1662     2.2400    27.4499   250.0470     0.000
