# scan = 43
# date = 9/21/2024
# time = 10:13:13 PM
# proposal = 34735
# experiment = Magnons and paramagnon coupling in MnTe
# experiment_number = 816
# command = scan h 1.45 k 0.0 l 1.45 e 45 1 1 ef 14.7 preset mcu 60
# builtin_command = scan h 1.45 k 0.0 l 1.45 e 45 1 1 ef 14.7 preset mcu 60
# users = Benjamin Frandsen, Songxue Chi, George Yumnam, Huibo Cao, Michael Manley, Raphael Hermann, Eleanor Clements
# local_contact = Eleanor Clements
# scan_title = H0L scans along (101) to (1.5, 0, 1.5) at H/L = 1.45, mcu = 60, E = 45 to 1 mev (step 1mev)
# monochromator = PG002
# analyzer = Pg002
# sense = -+-
# collimation = 48-40-40-120
# samplename = MnTe
# sampletype = crystal
# samplemosaic = 30.000000
# latticeconstants = 4.134597,4.134597,6.679746,90.000000,90.000000,120.000000
# ubmatrix = -0.273127,-0.149222,-0.030247,-0.056745,-0.024153,0.146560,-0.013326,0.234830,-0.004146
# mode = 0
# plane_normal = -0.052339,0.017444,0.998477
# ubconf = UB21Sep2024_13243PM.ini
# preset_type = normal 
# preset_channel = mcu
# preset_value = 60.000000
# def_x = e
# def_y = detector
# col_headers = 
#   Pt.          h          k          l          e         ef       time   detector    monitor        mcu focal_length         m1         m2   mcrystal       marc     mtrans     mfocus       temp     temp_2         s1         s2        sgl        sgu        bbb        bbl        bbr        bbt        bab        bal        bar        bat        stl        stu         a1         a2          q         ei        vti     sample
      1     1.4501    -0.0000     1.4499    45.0053    14.7000     50.072     10.000 150721.000     60.000    33.1461   -20.0773   -20.0927   120.0962    -0.1480    -3.0001   -73.0266   250.0000   300.0000    92.3705    15.3619     3.0010     1.0017    14.0000    10.0000    17.0000    10.0000    19.0000    20.0000     8.0000    12.0000    -0.0005     0.0005   159.4167   -41.1662     2.8871    59.7053   250.0060     0.000
      2     1.4500    -0.0000     1.4501    44.0005    14.7000     49.153     10.000 150721.000     60.000    33.4272   -20.0773   -20.2658   120.0962    -0.1480    -3.0001   -72.3439   250.0000   300.0000    90.7126    17.1763     3.0010     1.0017    14.0000    10.0000    17.0000    10.0000    19.0000    20.0000     8.0000    12.0000    -0.0005     0.0005   159.4167   -41.1662     2.8870    58.7005   249.8530     0.000
      3     1.4500    -0.0000     1.4500    42.9994    14.7000     49.321     18.000 150721.000     60.000    33.7156   -20.0773   -20.4427   120.0962    -0.1480    -3.0001   -71.6566   250.0000   300.0000    89.1974    18.8281     3.0010     1.0017    14.0000    10.0000    17.0000    10.0000    19.0000    20.0000     8.0000    12.0000    -0.0005     0.0005   159.4167   -41.1662     2.8869    57.6994   250.0880     0.000
      4     1.4500    -0.0000     1.4501    41.9992    14.7000     49.566     50.000 150721.000     60.000    34.0116   -20.0773   -20.6242   120.0962    -0.1480    -3.0001   -70.9646   250.0000   300.0000    87.7908    20.3694     3.0010     1.0017    14.0000    10.0000    17.0000    10.0000    19.0000    20.0000     8.0000    12.0000    -0.0005     0.0005   159.4167   -41.1662     2.8869    56.6992   250.1000     0.000
      5     1.4501    -0.0000     1.4501    41.0012    14.7000     50.657     14.000 150721.000     60.000    34.3156   -20.0773   -20.8102   120.0962    -0.1480    -3.0001   -70.2678   250.0000   300.0000    86.4695    21.8168     3.0010     1.0017    14.0000    10.0000    17.0000    10.0000    19.0000    20.0000     8.0000    12.0000    -0.0005     0.0005   159.4167   -41.1662     2.8870    55.7012   249.8650     0.000
      6     1.4500    -0.0000     1.4501    39.9995    14.7000     51.377     14.000 150721.000     60.000    34.6278   -20.0773   -21.0020   120.0962    -0.1480    -3.0001   -69.5662   250.0000   300.0000    85.2164    23.1934     3.0010     1.0017    14.0000    10.0000    17.0000    10.0000    19.0000    20.0000     8.0000    12.0000    -0.0005     0.0005   159.4167   -41.1662     2.8870    54.6995   250.0330     0.000
      7     1.4500    -0.0000     1.4500    38.9997    14.7000     52.076     18.000 150721.000     60.000    34.9487   -20.0773   -21.1988   120.0962    -0.1480    -3.0001   -68.8594   250.0000   300.0000    84.0210    24.5058     3.0010     1.0017    14.0000    10.0000    17.0000    10.0000    19.0000    20.0000     8.0000    12.0000    -0.0005     0.0005   159.4167   -41.1662     2.8869    53.6997   249.9020     0.000
      8     1.4500    -0.0000     1.4501    38.0006    14.7000     51.768     10.000 150721.000     60.000    35.2788   -20.0773   -21.4012   120.0962    -0.1480    -3.0001   -68.1475   250.0000   300.0000    82.8736    25.7706     3.0010     1.0017    14.0000    10.0000    17.0000    10.0000    19.0000    20.0000     8.0000    12.0000    -0.0005     0.0005   159.4167   -41.1662     2.8870    52.7006   250.0040     0.000
      9     1.4501    -0.0000     1.4501    37.0005    14.7000     51.184      8.000 150721.000     60.000    35.6183   -20.0773   -21.6096   120.0962    -0.1480    -3.0001   -67.4302   250.0000   300.0000    81.7665    26.9926     3.0010     1.0017    14.0000    10.0000    17.0000    10.0000    19.0000    20.0000     8.0000    12.0000    -0.0005     0.0005   159.4167   -41.1662     2.8870    51.7005   250.0080     0.000
     10     1.4500    -0.0000     1.4501    35.9994    14.7000     49.568     10.000 150721.000     60.000    35.9679   -20.0773   -21.8245   120.0962    -0.1480    -3.0001   -66.7074   250.0000   300.0000    80.6959    28.1763     3.0010     1.0017    14.0000    10.0000    17.0000    10.0000    19.0000    20.0000     8.0000    12.0000    -0.0005     0.0005   159.4167   -41.1662     2.8869    50.6994   250.0500     0.000
     11     1.4501    -0.0000     1.4501    35.0008    14.7000     47.256      9.000 150721.000     60.000    36.3279   -20.0773   -22.0454   120.0962    -0.1480    -3.0001   -65.9790   250.0000   300.0000    79.6556    29.3285     3.0010     1.0017    14.0000    10.0000    17.0000    10.0000    19.0000    20.0000     8.0000    12.0000    -0.0005     0.0005   159.4167   -41.1662     2.8870    49.7008   249.9820     0.000
     12     1.4500    -0.0000     1.4500    33.9990    14.7000     45.422      8.000 150721.000     60.000    36.6990   -20.0773   -22.2739   120.0962    -0.1480    -3.0001   -65.2446   250.0000   300.0000    78.6426    30.4517     3.0010     1.0017    14.0000    10.0000    17.0000    10.0000    19.0000    20.0000     8.0000    12.0000    -0.0005     0.0005   159.4167   -41.1662     2.8869    48.6991   249.9410     0.000
     13     1.4500    -0.0000     1.4500    33.0007    14.7000     44.073      6.000 150721.000     60.000    37.0817   -20.0773   -22.5088   120.0962    -0.1480    -3.0001   -64.5042   250.0000   300.0000    77.6536    31.5527     3.0010     1.0017    14.0000    10.0000    17.0000    10.0000    19.0000    20.0000     8.0000    12.0000    -0.0005     0.0005   159.4167   -41.1662     2.8869    47.7007   249.8450     0.000
     14     1.4500    -0.0000     1.4500    31.9998    14.7000     43.917      9.000 150721.000     60.000    37.4766   -20.0773   -22.7519   120.0962    -0.1480    -3.0001   -63.7576   250.0000   300.0000    76.6854    32.6330     3.0010     1.0017    14.0000    10.0000    17.0000    10.0000    19.0000    20.0000     8.0000    12.0000    -0.0005     0.0005   159.4167   -41.1662     2.8869    46.6998   249.8680     0.000
     15     1.4500    -0.0000     1.4500    30.9994    14.7000     43.368     12.000 150721.000     60.000    37.8844   -20.0773   -23.0029   120.0962    -0.1480    -3.0001   -63.0045   250.0000   300.0000    75.7366    33.6922     3.0010     1.0017    14.0000    10.0000    17.0000    10.0000    19.0000    20.0000     8.0000    12.0000    -0.0005     0.0005   159.4167   -41.1662     2.8869    45.6994   250.0840     0.000
     16     1.4500    -0.0000     1.4500    30.0002    14.7000     42.472      9.000 150721.000     60.000    38.3059   -20.0773   -23.2622   120.0962    -0.1480    -3.0001   -62.2448   250.0000   300.0000    74.8046    34.7375     3.0010     1.0017    14.0000    10.0000    17.0000    10.0000    19.0000    20.0000     8.0000    12.0000    -0.0005     0.0005   159.4167   -41.1662     2.8869    44.7002   250.0950     0.000
     17     1.4500    -0.0000     1.4500    29.0001    14.7000     41.767     11.000 150721.000     60.000    38.7417   -20.0773   -23.5306   120.0962    -0.1480    -3.0001   -61.4781   250.0000   300.0000    73.8875    35.7676     3.0010     1.0017    14.0000    10.0000    17.0000    10.0000    19.0000    20.0000     8.0000    12.0000    -0.0005     0.0005   159.4167   -41.1662     2.8869    43.7001   250.0280     0.000
     18     1.4501    -0.0000     1.4501    28.0002    14.7000     41.659      7.000 150721.000     60.000    39.1927   -20.0773   -23.8085   120.0962    -0.1480    -3.0001   -60.7044   250.0000   300.0000    72.9841    36.7873     3.0010     1.0017    14.0000    10.0000    17.0000    10.0000    19.0000    20.0000     8.0000    12.0000    -0.0005     0.0005   159.4167   -41.1662     2.8870    42.7002   250.0150     0.000
     19     1.4501    -0.0000     1.4501    27.0003    14.7000     40.433     11.000 150721.000     60.000    39.6598   -20.0773   -24.0965   120.0962    -0.1480    -3.0001   -59.9232   250.0000   300.0000    72.0924    37.7950     3.0010     1.0017    14.0000    10.0000    17.0000    10.0000    19.0000    20.0000     8.0000    12.0000    -0.0005     0.0005   159.4167   -41.1662     2.8870    41.7003   250.0690     0.000
     20     1.4501    -0.0000     1.4501    25.9999    14.7000     38.864     10.000 150721.000     60.000    40.1441   -20.0773   -24.3953   120.0962    -0.1480    -3.0001   -59.1343   250.0000   300.0000    71.2115    38.7932     3.0010     1.0017    14.0000    10.0000    17.0000    10.0000    19.0000    20.0000     8.0000    12.0000    -0.0005     0.0005   159.4167   -41.1662     2.8870    40.6999   250.0090     0.000
     21     1.4501    -0.0000     1.4500    25.0005    14.7000     37.728      8.000 150721.000     60.000    40.6465   -20.0773   -24.7053   120.0962    -0.1480    -3.0001   -58.3375   250.0000   300.0000    70.3405    39.7814     3.0010     1.0017    14.0000    10.0000    17.0000    10.0000    19.0000    20.0000     8.0000    12.0000    -0.0005     0.0005   159.4167   -41.1662     2.8870    39.7005   250.0970     0.000
     22     1.4500    -0.0000     1.4500    24.0003    14.7000     38.047     10.000 150721.000     60.000    41.1683   -20.0773   -25.0276   120.0962    -0.1480    -3.0001   -57.5324   250.0000   300.0000    69.4781    40.7647     3.0010     1.0017    14.0000    10.0000    17.0000    10.0000    19.0000    20.0000     8.0000    12.0000    -0.0005     0.0005   159.4167   -41.1662     2.8870    38.7003   249.9740     0.000
     23     1.4500    -0.0000     1.4500    22.9999    14.7000     39.283      6.000 150721.000     60.000    41.7108   -20.0773   -25.3629   120.0962    -0.1480    -3.0001   -56.7188   250.0000   300.0000    68.6227    41.7424     3.0010     1.0017    14.0000    10.0000    17.0000    10.0000    19.0000    20.0000     8.0000    12.0000    -0.0005     0.0005   159.4167   -41.1662     2.8869    37.6999   249.8560     0.000
     24     1.4500    -0.0000     1.4500    21.9997    14.7000     41.015     12.000 150721.000     60.000    42.2752   -20.0773   -25.7121   120.0962    -0.1480    -3.0001   -55.8961   250.0000   300.0000    67.7745    42.7170     3.0010     1.0017    14.0000    10.0000    17.0000    10.0000    19.0000    20.0000     8.0000    12.0000    -0.0005     0.0005   159.4167   -41.1662     2.8869    36.6997   249.9400     0.000
     25     1.4500    -0.0000     1.4500    21.0005    14.7000     41.628     12.000 150721.000     60.000    42.8632   -20.0773   -26.0757   120.0962    -0.1480    -3.0001   -55.0642   250.0000   300.0000    66.9314    43.6873     3.0010     1.0017    14.0000    10.0000    17.0000    10.0000    19.0000    20.0000     8.0000    12.0000    -0.0005     0.0005   159.4167   -41.1662     2.8869    35.7005   249.9200     0.000
     26     1.4499    -0.0000     1.4500    19.9992    14.7000     41.961     12.000 150721.000     60.000    43.4765   -20.0773   -26.4559   120.0962    -0.1480    -3.0001   -54.2224   250.0000   300.0000    66.0943    44.6556     3.0010     1.0017    14.0000    10.0000    17.0000    10.0000    19.0000    20.0000     8.0000    12.0000    -0.0005     0.0005   159.4167   -41.1662     2.8868    34.6992   249.8670     0.000
     27     1.4500    -0.0000     1.4500    19.0006    14.7000     43.256     15.000 150721.000     60.000    44.1168   -20.0773   -26.8523   120.0962    -0.1480    -3.0001   -53.3706   250.0000   300.0000    65.2602    45.6265     3.0010     1.0017    14.0000    10.0000    17.0000    10.0000    19.0000    20.0000     8.0000    12.0000    -0.0005     0.0005   159.4167   -41.1662     2.8869    33.7006   249.9320     0.000
     28     1.4500    -0.0000     1.4500    17.9996    14.7000     44.302      9.000 150721.000     60.000    44.7863   -20.0773   -27.2680   120.0962    -0.1480    -3.0001   -52.5081   250.0000   300.0000    64.4304    46.5975     3.0010     1.0017    14.0000    10.0000    17.0000    10.0000    19.0000    20.0000     8.0000    12.0000    -0.0005     0.0005   159.4167   -41.1662     2.8870    32.6996   250.0010     0.000
     29     1.4501    -0.0000     1.4500    17.0003    14.7000     45.550     10.000 150721.000     60.000    45.4872   -20.0773   -27.7028   120.0962    -0.1480    -3.0001   -51.6345   250.0000   300.0000    63.6030    47.5680     3.0010     1.0017    14.0000    10.0000    17.0000    10.0000    19.0000    20.0000     8.0000    12.0000    -0.0005     0.0005   159.4167   -41.1662     2.8870    31.7004   250.0900     0.000
     30     1.4500    -0.0000     1.4500    15.9994    14.7000     45.956      9.000 150721.000     60.000    46.2221   -20.0773   -28.1600   120.0962    -0.1480    -3.0001   -50.7492   250.0000   300.0000    62.7779    48.5403     3.0010     1.0017    14.0000    10.0000    17.0000    10.0000    19.0000    20.0000     8.0000    12.0000    -0.0005     0.0005   159.4167   -41.1662     2.8869    30.6995   250.0610     0.000
     31     1.4500    -0.0000     1.4500    15.0003    14.7000     47.078     11.000 150721.000     60.000    46.9938   -20.0773   -28.6397   120.0962    -0.1480    -3.0001   -49.8518   250.0000   300.0000    61.9541    49.5172     3.0010     1.0017    14.0000    10.0000    17.0000    10.0000    19.0000    20.0000     8.0000    12.0000    -0.0005     0.0005   159.4167   -41.1662     2.8869    29.7003   250.0490     0.000
     32     1.4500    -0.0000     1.4500    13.9997    14.7000     45.245     12.000 150721.000     60.000    47.8055   -20.0773   -29.1455   120.0962    -0.1480    -3.0001   -48.9414   250.0000   300.0000    61.1305    50.4981     3.0010     1.0017    14.0000    10.0000    17.0000    10.0000    19.0000    20.0000     8.0000    12.0000    -0.0005     0.0005   159.4167   -41.1662     2.8868    28.6997   249.9450     0.000
     33     1.4500    -0.0000     1.4500    13.0001    14.7000     44.439     11.000 150721.000     60.000    48.6608   -20.0773   -29.6786   120.0962    -0.1480    -3.0001   -48.0174   250.0000   300.0000    60.3083    51.4863     3.0010     1.0017    14.0000    10.0000    17.0000    10.0000    19.0000    20.0000     8.0000    12.0000    -0.0005     0.0005   159.4167   -41.1662     2.8869    27.7001   249.8880     0.000
     34     1.4500    -0.0000     1.4500    12.0000    14.7000     47.121     16.000 150721.000     60.000    49.5636   -20.0773   -30.2423   120.0962    -0.1480    -3.0001   -47.0791   250.0000   300.0000    59.4846    52.4814     3.0010     1.0017    14.0000    10.0000    17.0000    10.0000    19.0000    20.0000     8.0000    12.0000    -0.0005     0.0005   159.4167   -41.1662     2.8869    26.7000   250.0180     0.000
     35     1.4500    -0.0000     1.4500    10.9999    14.7000     46.689      9.000 150721.000     60.000    50.5187   -20.0773   -30.8395   120.0962    -0.1480    -3.0001   -46.1257   250.0000   300.0000    58.6601    53.4855     3.0010     1.0017    14.0000    10.0000    17.0000    10.0000    19.0000    20.0000     8.0000    12.0000    -0.0005     0.0005   159.4167   -41.1662     2.8869    25.6999   250.0210     0.000
     36     1.4500    -0.0000     1.4500    10.0004    14.7000     46.845     20.000 150721.000     60.000    51.5312   -20.0773   -31.4731   120.0962    -0.1480    -3.0001   -45.1562   250.0000   300.0000    57.8341    54.5001     3.0010     1.0017    14.0000    10.0000    17.0000    10.0000    19.0000    20.0000     8.0000    12.0000    -0.0005     0.0005   159.4167   -41.1662     2.8869    24.7005   250.0590     0.000
     37     1.4500    -0.0000     1.4500     8.9998    14.7000     49.034     12.000 150721.000     60.000    52.6071   -20.0773   -32.1482   120.0962    -0.1480    -3.0001   -44.1697   250.0000   300.0000    57.0051    55.5263     3.0010     1.0017    14.0000    10.0000    17.0000    10.0000    19.0000    20.0000     8.0000    12.0000    -0.0005     0.0005   159.4167   -41.1662     2.8869    23.6998   249.9160     0.000
     38     1.4500    -0.0000     1.4500     8.0000    14.7000     43.434      9.000 150721.000     60.000    53.7534   -20.0773   -32.8682   120.0962    -0.1480    -3.0001   -43.1651   250.0000   300.0000    56.1739    56.5639     3.0010     1.0017    14.0000    10.0000    17.0000    10.0000    19.0000    20.0000     8.0000    12.0000    -0.0005     0.0005   159.4167   -41.1662     2.8869    22.7000   250.1120     0.000
     39     1.4500    -0.0000     1.4500     7.0000    14.7000     43.123     20.000 150721.000     60.000    54.9780   -20.0773   -33.6390   120.0962    -0.1480    -3.0001   -42.1410   250.0000   300.0000    55.3385    57.6190     3.0010     1.0017    14.0000    10.0000    17.0000    10.0000    19.0000    20.0000     8.0000    12.0000    -0.0005     0.0005   159.4167   -41.1662     2.8869    21.7000   250.0520     0.000
     40     1.4500    -0.0000     1.4500     6.0001    14.7000     44.958     12.000 150721.000     60.000    56.2903   -20.0773   -34.4667   120.0962    -0.1480    -3.0001   -41.0963   250.0000   300.0000    54.4991    58.6883     3.0010     1.0017    14.0000    10.0000    17.0000    10.0000    19.0000    20.0000     8.0000    12.0000    -0.0005     0.0005   159.4167   -41.1662     2.8869    20.7001   250.0050     0.000
     41     1.4500    -0.0000     1.4500     4.9999    14.7000     48.347     15.000 150721.000     60.000    57.7013   -20.0773   -35.3590   120.0962    -0.1480    -3.0001   -40.0292   250.0000   300.0000    53.6547    59.7806     3.0010     1.0017    14.0000    10.0000    17.0000    10.0000    19.0000    20.0000     8.0000    12.0000    -0.0005     0.0005   159.4167   -41.1662     2.8869    19.6999   249.9880     0.000
     42     1.4500    -0.0000     1.4500     3.9998    14.7000     50.175     19.000 150721.000     60.000    59.2240   -20.0773   -36.3243   120.0962    -0.1480    -3.0001   -38.9382   250.0000   300.0000    52.8045    60.8922     3.0010     1.0017    14.0000    10.0000    17.0000    10.0000    19.0000    20.0000     8.0000    12.0000    -0.0005     0.0005   159.4167   -41.1662     2.8869    18.6998   249.8580     0.000
     43     1.4500    -0.0000     1.4500     3.0003    14.7000     57.242      8.000 150721.000     60.000    60.8740   -20.0773   -37.3726   120.0962    -0.1480    -3.0001   -37.8211   250.0000   300.0000    51.9489    62.0296     3.0010     1.0017    14.0000    10.0000    17.0000    10.0000    19.0000    20.0000     8.0000    12.0000    -0.0005     0.0005   159.4167   -41.1662     2.8869    17.7003   250.0710     0.000
