# scan = 76
# date = 9/23/2024
# time = 6:42:10 AM
# proposal = 34735
# experiment = Magnons and paramagnon coupling in MnTe
# experiment_number = 816
# command = scan h 1.25 k 0.0 l 1.25 e 40 1 0.25 ef 14.7 preset mcu 120
# builtin_command = scan h 1.25 k 0.0 l 1.25 e 40 1 0.25 ef 14.7 preset mcu 120
# users = Benjamin Frandsen, Songxue Chi, George Yumnam, Huibo Cao, Michael Manley, Raphael Hermann, Eleanor Clements
# local_contact = Eleanor Clements
# scan_title = H0L scans along (101) to (1.5, 0, 1.5) at H/L = 1.25, mcu = 120, E = 40 to 1 mev
# monochromator = PG002
# analyzer = Pg002
# sense = -+-
# collimation = 48-40-40-120
# samplename = MnTe
# sampletype = crystal
# samplemosaic = 30.000000
# latticeconstants = 4.134597,4.134597,6.679746,90.000000,90.000000,120.000000
# ubmatrix = -0.273127,-0.149222,-0.030247,-0.056745,-0.024153,0.146560,-0.013326,0.234830,-0.004146
# mode = 0
# plane_normal = -0.052339,0.017444,0.998477
# ubconf = UB21Sep2024_13243PM.ini
# preset_type = normal 
# preset_channel = mcu
# preset_value = 120.000000
# def_x = e
# def_y = detector
# col_headers = 
#   Pt.          h          k          l          e         ef       time   detector    monitor        mcu focal_length         m1         m2   mcrystal       marc     mtrans     mfocus       temp     temp_2         s1         s2        sgl        sgu        bbb        bbl        bbr        bbt        bab        bal        bar        bat        stl        stu         a1         a2          q         ei        vti     sample
      1     1.2501    -0.0000     1.2501    40.0035    14.7000    106.219    829.000 301441.000    120.000    34.6278   -20.0773   -21.0012   120.0962    -0.1480    -3.0001   -69.5662   250.0000   300.0000   102.1044     4.1271     3.0010     1.0017    14.0000    10.0000    17.0000    10.0000    19.0000    20.0000     8.0000    12.0000    -0.0005     0.0005   159.4165   -41.1662     2.4889    54.7035   249.9590     0.000
      2     1.2500    -0.0000     1.2501    39.7505    14.7000    105.720     22.000 301441.000    120.000    34.7072   -20.0773   -21.0505   120.0962    -0.1480    -3.0001   -69.3900   250.0000   300.0000   100.5572     5.5727     3.0010     1.0017    14.0000    10.0000    17.0000    10.0000    19.0000    20.0000     8.0000    12.0000    -0.0005     0.0005   159.4165   -41.1662     2.4887    54.4505   250.0590     0.000
      3     1.2500    -0.0000     1.2500    39.4999    14.7000    105.528     20.000 301441.000    120.000    34.7872   -20.0773   -21.0997   120.0962    -0.1480    -3.0001   -69.2134   250.0000   300.0000    99.3321     6.7151     3.0010     1.0017    14.0000    10.0000    17.0000    10.0000    19.0000    20.0000     8.0000    12.0000    -0.0005     0.0005   159.4165   -41.1662     2.4887    54.1999   250.0530     0.000
      4     1.2500    -0.0000     1.2500    39.2501    14.7000    105.243     22.000 301441.000    120.000    34.8677   -20.0773   -21.1490   120.0962    -0.1480    -3.0001   -69.0366   250.0000   300.0000    98.2841     7.6918     3.0010     1.0017    14.0000    10.0000    17.0000    10.0000    19.0000    20.0000     8.0000    12.0000    -0.0005     0.0005   159.4165   -41.1662     2.4887    53.9501   249.9360     0.000
      5     1.2500    -0.0000     1.2501    38.9994    14.7000    104.712     12.000 301441.000    120.000    34.9487   -20.0773   -21.1989   120.0962    -0.1480    -3.0001   -68.8594   250.0000   300.0000    97.3528     8.5643     3.0010     1.0017    14.0000    10.0000    17.0000    10.0000    19.0000    20.0000     8.0000    12.0000    -0.0005     0.0005   159.4165   -41.1662     2.4887    53.6994   249.9910     0.000
      6     1.2500    -0.0000     1.2501    38.7507    14.7000    104.567     12.000 301441.000    120.000    35.0304   -20.0773   -21.2487   120.0962    -0.1480    -3.0001   -68.6819   250.0000   300.0000    96.5044     9.3552     3.0010     1.0017    14.0000    10.0000    17.0000    10.0000    19.0000    20.0000     8.0000    12.0000    -0.0005     0.0005   159.4165   -41.1662     2.4888    53.4507   250.0690     0.000
      7     1.2500    -0.0000     1.2500    38.4997    14.7000    104.528     13.000 301441.000    120.000    35.1126   -20.0773   -21.2994   120.0962    -0.1480    -3.0001   -68.5041   250.0000   300.0000    95.7203    10.0844     3.0010     1.0017    14.0000    10.0000    17.0000    10.0000    19.0000    20.0000     8.0000    12.0000    -0.0005     0.0005   159.4165   -41.1662     2.4887    53.1997   249.9760     0.000
      8     1.2500    -0.0000     1.2501    38.2509    14.7000    104.430     14.000 301441.000    120.000    35.1954   -20.0773   -21.3499   120.0962    -0.1480    -3.0001   -68.3260   250.0000   300.0000    94.9868    10.7690     3.0010     1.0017    14.0000    10.0000    17.0000    10.0000    19.0000    20.0000     8.0000    12.0000    -0.0005     0.0005   159.4165   -41.1662     2.4888    52.9509   249.9910     0.000
      9     1.2500    -0.0000     1.2501    37.9996    14.7000    104.150     21.000 301441.000    120.000    35.2788   -20.0773   -21.4014   120.0962    -0.1480    -3.0001   -68.1475   250.0000   300.0000    94.2952    11.4147     3.0010     1.0017    14.0000    10.0000    17.0000    10.0000    19.0000    20.0000     8.0000    12.0000    -0.0005     0.0005   159.4165   -41.1662     2.4887    52.6997   250.0220     0.000
     10     1.2500    -0.0000     1.2500    37.7495    14.7000    103.663     23.000 301441.000    120.000    35.3628   -20.0773   -21.4530   120.0962    -0.1480    -3.0001   -67.9687   250.0000   300.0000    93.6386    12.0237     3.0010     1.0017    14.0000    10.0000    17.0000    10.0000    19.0000    20.0000     8.0000    12.0000    -0.0005     0.0005   159.4165   -41.1662     2.4887    52.4495   250.0570     0.000
     11     1.2500    -0.0000     1.2500    37.4999    14.7000    103.557     14.000 301441.000    120.000    35.4473   -20.0773   -21.5048   120.0962    -0.1480    -3.0001   -67.7895   250.0000   300.0000    93.0113    12.6080     3.0010     1.0017    14.0000    10.0000    17.0000    10.0000    19.0000    20.0000     8.0000    12.0000    -0.0005     0.0005   159.4165   -41.1662     2.4887    52.2000   250.0420     0.000
     12     1.2500    -0.0000     1.2502    37.2504    14.7000    102.649     22.000 301441.000    120.000    35.5325   -20.0773   -21.5570   120.0962    -0.1480    -3.0001   -67.6100   250.0000   300.0000    92.4105    13.1710     3.0010     1.0017    14.0000    10.0000    17.0000    10.0000    19.0000    20.0000     8.0000    12.0000    -0.0005     0.0005   159.4165   -41.1662     2.4888    51.9504   249.9320     0.000
     13     1.2500    -0.0000     1.2501    37.0001    14.7000    102.299     20.000 301441.000    120.000    35.6183   -20.0773   -21.6097   120.0962    -0.1480    -3.0001   -67.4302   250.0000   300.0000    91.8320    13.7070     3.0010     1.0017    14.0000    10.0000    17.0000    10.0000    19.0000    20.0000     8.0000    12.0000    -0.0005     0.0005   159.4165   -41.1662     2.4887    51.7001   250.0630     0.000
     14     1.2500    -0.0000     1.2500    36.7498    14.7000    101.257     18.000 301441.000    120.000    35.7048   -20.0773   -21.6629   120.0962    -0.1480    -3.0001   -67.2500   250.0000   300.0000    91.2738    14.2245     3.0010     1.0017    14.0000    10.0000    17.0000    10.0000    19.0000    20.0000     8.0000    12.0000    -0.0005     0.0005   159.4165   -41.1662     2.4887    51.4498   249.8750     0.000
     15     1.2500    -0.0000     1.2501    36.4997    14.7000    100.479     16.000 301441.000    120.000    35.7918   -20.0773   -21.7163   120.0962    -0.1480    -3.0001   -67.0695   250.0000   300.0000    90.7330    14.7292     3.0010     1.0017    14.0000    10.0000    17.0000    10.0000    19.0000    20.0000     8.0000    12.0000    -0.0005     0.0005   159.4165   -41.1662     2.4887    51.1998   250.0390     0.000
     16     1.2500    -0.0000     1.2500    36.2500    14.7000     99.481     21.000 301441.000    120.000    35.8795   -20.0773   -21.7702   120.0962    -0.1480    -3.0001   -66.8886   250.0000   300.0000    90.2086    15.2147     3.0010     1.0017    14.0000    10.0000    17.0000    10.0000    19.0000    20.0000     8.0000    12.0000    -0.0005     0.0005   159.4165   -41.1662     2.4887    50.9500   249.8680     0.000
     17     1.2500    -0.0000     1.2499    36.0000    14.7000     98.759     23.000 301441.000    120.000    35.9679   -20.0773   -21.8244   120.0962    -0.1480    -3.0001   -66.7074   250.0000   300.0000    89.6989    15.6867     3.0010     1.0017    14.0000    10.0000    17.0000    10.0000    19.0000    20.0000     8.0000    12.0000    -0.0005     0.0005   159.4165   -41.1662     2.4887    50.7001   250.0160     0.000
     18     1.2500    -0.0000     1.2500    35.7495    14.7000     97.817     20.000 301441.000    120.000    36.0569   -20.0773   -21.8792   120.0962    -0.1480    -3.0001   -66.5258   250.0000   300.0000    89.2024    16.1503     3.0010     1.0017    14.0000    10.0000    17.0000    10.0000    19.0000    20.0000     8.0000    12.0000    -0.0005     0.0005   159.4165   -41.1662     2.4887    50.4495   249.8750     0.000
     19     1.2500    -0.0000     1.2501    35.5009    14.7000     96.307     31.000 301441.000    120.000    36.1466   -20.0773   -21.9340   120.0962    -0.1480    -3.0001   -66.3439   250.0000   300.0000    88.7180    16.6009     3.0010     1.0017    14.0000    10.0000    17.0000    10.0000    19.0000    20.0000     8.0000    12.0000    -0.0005     0.0005   159.4165   -41.1662     2.4888    50.2009   250.0320     0.000
     20     1.2500    -0.0000     1.2500    35.2493    14.7000     95.438     38.000 301441.000    120.000    36.2369   -20.0773   -21.9898   120.0962    -0.1480    -3.0001   -66.1616   250.0000   300.0000    88.2447    17.0381     3.0010     1.0017    14.0000    10.0000    17.0000    10.0000    19.0000    20.0000     8.0000    12.0000    -0.0005     0.0005   159.4165   -41.1662     2.4887    49.9494   250.0380     0.000
     21     1.2500    -0.0000     1.2500    35.0010    14.7000     94.132     37.000 301441.000    120.000    36.3279   -20.0773   -22.0454   120.0962    -0.1480    -3.0001   -65.9790   250.0000   300.0000    87.7823    17.4674     3.0010     1.0017    14.0000    10.0000    17.0000    10.0000    19.0000    20.0000     8.0000    12.0000    -0.0005     0.0005   159.4165   -41.1662     2.4887    49.7010   249.9240     0.000
     22     1.2500    -0.0000     1.2500    34.7502    14.7000     93.230     30.000 301441.000    120.000    36.4196   -20.0773   -22.1019   120.0962    -0.1480    -3.0001   -65.7959   250.0000   300.0000    87.3289    17.8889     3.0010     1.0017    14.0000    10.0000    17.0000    10.0000    19.0000    20.0000     8.0000    12.0000    -0.0005     0.0005   159.4165   -41.1662     2.4887    49.4502   249.8450     0.000
     23     1.2500    -0.0000     1.2500    34.5001    14.7000     91.936     36.000 301441.000    120.000    36.5121   -20.0773   -22.1587   120.0962    -0.1480    -3.0001   -65.6125   250.0000   300.0000    86.8843    18.3009     3.0010     1.0017    14.0000    10.0000    17.0000    10.0000    19.0000    20.0000     8.0000    12.0000    -0.0005     0.0005   159.4165   -41.1662     2.4887    49.2001   250.0850     0.000
     24     1.2500    -0.0000     1.2500    34.2491    14.7000     90.942     28.000 301441.000    120.000    36.6052   -20.0773   -22.2162   120.0962    -0.1480    -3.0001   -65.4288   250.0000   300.0000    86.4484    18.7046     3.0010     1.0017    14.0000    10.0000    17.0000    10.0000    19.0000    20.0000     8.0000    12.0000    -0.0005     0.0005   159.4165   -41.1662     2.4887    48.9491   250.0360     0.000
     25     1.2500    -0.0000     1.2500    33.9997    14.7000     90.442     25.000 301441.000    120.000    36.6990   -20.0773   -22.2737   120.0962    -0.1480    -3.0001   -65.2446   250.0000   300.0000    86.0199    19.1021     3.0010     1.0017    14.0000    10.0000    17.0000    10.0000    19.0000    20.0000     8.0000    12.0000    -0.0005     0.0005   159.4165   -41.1662     2.4887    48.6997   250.0680     0.000
     26     1.2500    -0.0000     1.2500    33.7507    14.7000     90.068     29.000 301441.000    120.000    36.7936   -20.0773   -22.3316   120.0962    -0.1480    -3.0001   -65.0601   250.0000   300.0000    85.5989    19.4909     3.0010     1.0017    14.0000    10.0000    17.0000    10.0000    19.0000    20.0000     8.0000    12.0000    -0.0005     0.0005   159.4165   -41.1662     2.4887    48.4507   250.0700     0.000
     27     1.2500    -0.0000     1.2499    33.5001    14.7000     88.765     32.000 301441.000    120.000    36.8889   -20.0773   -22.3903   120.0962    -0.1480    -3.0001   -64.8752   250.0000   300.0000    85.1844    19.8737     3.0010     1.0017    14.0000    10.0000    17.0000    10.0000    19.0000    20.0000     8.0000    12.0000    -0.0005     0.0005   159.4165   -41.1662     2.4887    48.2002   250.0270     0.000
     28     1.2500    -0.0000     1.2500    33.2499    14.7000     88.885     28.000 301441.000    120.000    36.9849   -20.0773   -22.4494   120.0962    -0.1480    -3.0001   -64.6899   250.0000   300.0000    84.7765    20.2527     3.0010     1.0017    14.0000    10.0000    17.0000    10.0000    19.0000    20.0000     8.0000    12.0000    -0.0005     0.0005   159.4165   -41.1662     2.4887    47.9499   250.0050     0.000
     29     1.2500    -0.0000     1.2500    33.0001    14.7000     88.451     27.000 301441.000    120.000    37.0817   -20.0773   -22.5089   120.0962    -0.1480    -3.0001   -64.5042   250.0000   300.0000    84.3749    20.6239     3.0010     1.0017    14.0000    10.0000    17.0000    10.0000    19.0000    20.0000     8.0000    12.0000    -0.0005     0.0005   159.4165   -41.1662     2.4887    47.7001   250.0400     0.000
     30     1.2500    -0.0000     1.2501    32.7489    14.7000     88.470     29.000 301441.000    120.000    37.1793   -20.0773   -22.5692   120.0962    -0.1480    -3.0001   -64.3182   250.0000   300.0000    83.9788    20.9920     3.0010     1.0017    14.0000    10.0000    17.0000    10.0000    19.0000    20.0000     8.0000    12.0000    -0.0005     0.0005   159.4165   -41.1662     2.4887    47.4489   250.0810     0.000
     31     1.2500    -0.0000     1.2500    32.5008    14.7000     88.009     24.000 301441.000    120.000    37.2776   -20.0773   -22.6292   120.0962    -0.1480    -3.0001   -64.1317   250.0000   300.0000    83.5876    21.3519     3.0010     1.0017    14.0000    10.0000    17.0000    10.0000    19.0000    20.0000     8.0000    12.0000    -0.0005     0.0005   159.4165   -41.1662     2.4888    47.2008   250.0940     0.000
     32     1.2500    -0.0000     1.2500    32.2497    14.7000     88.047     23.000 301441.000    120.000    37.3767   -20.0773   -22.6905   120.0962    -0.1480    -3.0001   -63.9448   250.0000   300.0000    83.2023    21.7082     3.0010     1.0017    14.0000    10.0000    17.0000    10.0000    19.0000    20.0000     8.0000    12.0000    -0.0005     0.0005   159.4165   -41.1662     2.4887    46.9497   250.0950     0.000
     33     1.2500    -0.0000     1.2499    32.0000    14.7000     87.979     22.000 301441.000    120.000    37.4766   -20.0773   -22.7518   120.0962    -0.1480    -3.0001   -63.7576   250.0000   300.0000    82.8213    22.0576     3.0010     1.0017    14.0000    10.0000    17.0000    10.0000    19.0000    20.0000     8.0000    12.0000    -0.0005     0.0005   159.4165   -41.1662     2.4887    46.7000   250.0420     0.000
     34     1.2500    -0.0000     1.2500    31.7500    14.7000     87.506     28.000 301441.000    120.000    37.5773   -20.0773   -22.8138   120.0962    -0.1480    -3.0001   -63.5699   250.0000   300.0000    82.4451    22.4074     3.0010     1.0017    14.0000    10.0000    17.0000    10.0000    19.0000    20.0000     8.0000    12.0000    -0.0005     0.0005   159.4165   -41.1662     2.4887    46.4500   249.9750     0.000
     35     1.2500    -0.0000     1.2501    31.5005    14.7000     87.168     23.000 301441.000    120.000    37.6789   -20.0773   -22.8762   120.0962    -0.1480    -3.0001   -63.3819   250.0000   300.0000    82.0738    22.7505     3.0010     1.0017    14.0000    10.0000    17.0000    10.0000    19.0000    20.0000     8.0000    12.0000    -0.0005     0.0005   159.4165   -41.1662     2.4888    46.2005   249.8910     0.000
     36     1.2500    -0.0000     1.2500    31.2496    14.7000     87.121     25.000 301441.000    120.000    37.7812   -20.0773   -22.9394   120.0962    -0.1480    -3.0001   -63.1934   250.0000   300.0000    81.7054    23.0881     3.0010     1.0017    14.0000    10.0000    17.0000    10.0000    19.0000    20.0000     8.0000    12.0000    -0.0005     0.0005   159.4165   -41.1662     2.4887    45.9496   249.8480     0.000
     37     1.2500    -0.0000     1.2500    30.9994    14.7000     86.618     25.000 301441.000    120.000    37.8844   -20.0773   -23.0029   120.0962    -0.1480    -3.0001   -63.0045   250.0000   300.0000    81.3420    23.4239     3.0010     1.0017    14.0000    10.0000    17.0000    10.0000    19.0000    20.0000     8.0000    12.0000    -0.0005     0.0005   159.4165   -41.1662     2.4887    45.6994   249.8850     0.000
     38     1.2500    -0.0000     1.2500    30.7506    14.7000     86.024     22.000 301441.000    120.000    37.9885   -20.0773   -23.0667   120.0962    -0.1480    -3.0001   -62.8152   250.0000   300.0000    80.9824    23.7556     3.0010     1.0017    14.0000    10.0000    17.0000    10.0000    19.0000    20.0000     8.0000    12.0000    -0.0005     0.0005   159.4165   -41.1662     2.4888    45.4507   250.0280     0.000
     39     1.2500    -0.0000     1.2500    30.4995    14.7000     85.579     16.000 301441.000    120.000    38.0934   -20.0773   -23.1315   120.0962    -0.1480    -3.0001   -62.6255   250.0000   300.0000    80.6256    24.0828     3.0010     1.0017    14.0000    10.0000    17.0000    10.0000    19.0000    20.0000     8.0000    12.0000    -0.0005     0.0005   159.4165   -41.1662     2.4887    45.1995   250.0070     0.000
     40     1.2501    -0.0000     1.2501    30.2510    14.7000     85.251     26.000 301441.000    120.000    38.1992   -20.0773   -23.1963   120.0962    -0.1480    -3.0001   -62.4354   250.0000   300.0000    80.2735    24.4090     3.0010     1.0017    14.0000    10.0000    17.0000    10.0000    19.0000    20.0000     8.0000    12.0000    -0.0005     0.0005   159.4165   -41.1662     2.4888    44.9510   250.0150     0.000
     41     1.2500    -0.0000     1.2500    29.9995    14.7000     84.567     19.000 301441.000    120.000    38.3059   -20.0773   -23.2624   120.0962    -0.1480    -3.0001   -62.2448   250.0000   300.0000    79.9236    24.7300     3.0010     1.0017    14.0000    10.0000    17.0000    10.0000    19.0000    20.0000     8.0000    12.0000    -0.0005     0.0005   159.4165   -41.1662     2.4887    44.6995   250.0380     0.000
     42     1.2500    -0.0000     1.2500    29.7495    14.7000     84.191     24.000 301441.000    120.000    38.4134   -20.0773   -23.3286   120.0962    -0.1480    -3.0001   -62.0538   250.0000   300.0000    79.5773    25.0474     3.0010     1.0017    14.0000    10.0000    17.0000    10.0000    19.0000    20.0000     8.0000    12.0000    -0.0005     0.0005   159.4165   -41.1662     2.4887    44.4495   249.8630     0.000
     43     1.2500    -0.0000     1.2501    29.5002    14.7000     84.197     16.000 301441.000    120.000    38.5219   -20.0773   -23.3952   120.0962    -0.1480    -3.0001   -61.8623   250.0000   300.0000    79.2343    25.3645     3.0010     1.0017    14.0000    10.0000    17.0000    10.0000    19.0000    20.0000     8.0000    12.0000    -0.0005     0.0005   159.4165   -41.1662     2.4888    44.2002   249.9520     0.000
