# scan = 75
# date = 9/23/2024
# time = 5:23:29 AM
# proposal = 34735
# experiment = Magnons and paramagnon coupling in MnTe
# experiment_number = 816
# command = scan h 1.475 k 0.0 l 1.475 e 44.75 1.25 0.5 ef 14.7 preset mcu 60
# builtin_command = scan h 1.475 k 0.0 l 1.475 e 44.75 1.25 0.5 ef 14.7 preset mcu 60
# users = Benjamin Frandsen, Songxue Chi, George Yumnam, Huibo Cao, Michael Manley, Raphael Hermann, Eleanor Clements
# local_contact = Eleanor Clements
# scan_title = H0L scans along (101) to (1.5, 0, 1.5) at H/L = 1.475, mcu = 60, E = 44.75 to 1.25 mev
# monochromator = PG002
# analyzer = Pg002
# sense = -+-
# collimation = 48-40-40-120
# samplename = MnTe
# sampletype = crystal
# samplemosaic = 30.000000
# latticeconstants = 4.134597,4.134597,6.679746,90.000000,90.000000,120.000000
# ubmatrix = -0.273127,-0.149222,-0.030247,-0.056745,-0.024153,0.146560,-0.013326,0.234830,-0.004146
# mode = 0
# plane_normal = -0.052339,0.017444,0.998477
# ubconf = UB21Sep2024_13243PM.ini
# preset_type = normal 
# preset_channel = mcu
# preset_value = 60.000000
# def_x = e
# def_y = detector
# col_headers = 
#   Pt.          h          k          l          e         ef       time   detector    monitor        mcu focal_length         m1         m2   mcrystal       marc     mtrans     mfocus       temp     temp_2         s1         s2        sgl        sgu        bbb        bbl        bbr        bbt        bab        bal        bar        bat        stl        stu         a1         a2          q         ei        vti     sample
      1     1.4751    -0.0000     1.4749    44.7552    14.7000     50.199     20.000 150721.000     60.000    33.2157   -20.0773   -20.1354   120.0962    -0.1480    -3.0001   -72.8564   250.0000   300.0000    90.3849    17.8405     3.0010     1.0017    14.0000    10.0000    17.0000    10.0000    19.0000    20.0000     8.0000    12.0000    -0.0005     0.0005   159.4165   -41.1662     2.9368    59.4552   250.0770     0.000
      2     1.4750    -0.0000     1.4750    44.2477    14.7000     49.806     15.000 150721.000     60.000    33.3562   -20.0773   -20.2228   120.0962    -0.1480    -3.0001   -72.5150   250.0000   300.0000    89.6508    18.6615     3.0010     1.0017    14.0000    10.0000    17.0000    10.0000    19.0000    20.0000     8.0000    12.0000    -0.0005     0.0005   159.4165   -41.1662     2.9366    58.9477   250.0140     0.000
      3     1.4750    -0.0000     1.4750    43.7509    14.7000     49.599     15.000 150721.000     60.000    33.4986   -20.0773   -20.3094   120.0962    -0.1480    -3.0001   -72.1725   250.0000   300.0000    88.9444    19.4481     3.0010     1.0017    14.0000    10.0000    17.0000    10.0000    19.0000    20.0000     8.0000    12.0000    -0.0005     0.0005   159.4165   -41.1662     2.9367    58.4510   249.8450     0.000
      4     1.4750    -0.0000     1.4751    43.2498    14.7000     49.171    231.000 150721.000     60.000    33.6428   -20.0773   -20.3980   120.0962    -0.1480    -3.0001   -71.8288   250.0000   300.0000    88.2618    20.2105     3.0010     1.0017    14.0000    10.0000    17.0000    10.0000    19.0000    20.0000     8.0000    12.0000    -0.0005     0.0005   159.4165   -41.1662     2.9367    57.9499   250.1120     0.000
      5     1.4751    -0.0000     1.4751    42.7509    14.7000     49.311     25.000 150721.000     60.000    33.7889   -20.0773   -20.4873   120.0962    -0.1480    -3.0001   -71.4840   250.0000   300.0000    87.6005    20.9489     3.0010     1.0017    14.0000    10.0000    17.0000    10.0000    19.0000    20.0000     8.0000    12.0000    -0.0005     0.0005   159.4165   -41.1662     2.9368    57.4509   250.0580     0.000
      6     1.4750    -0.0000     1.4750    42.2489    14.7000     49.285     18.000 150721.000     60.000    33.9369   -20.0773   -20.5784   120.0962    -0.1480    -3.0001   -71.1380   250.0000   300.0000    86.9587    21.6645     3.0010     1.0017    14.0000    10.0000    17.0000    10.0000    19.0000    20.0000     8.0000    12.0000    -0.0005     0.0005   159.4165   -41.1662     2.9366    56.9489   249.8810     0.000
      7     1.4751    -0.0000     1.4750    41.7517    14.7000     49.705     10.000 150721.000     60.000    34.0869   -20.0773   -20.6698   120.0962    -0.1480    -3.0001   -70.7908   250.0000   300.0000    86.3337    22.3637     3.0010     1.0017    14.0000    10.0000    17.0000    10.0000    19.0000    20.0000     8.0000    12.0000    -0.0005     0.0005   159.4165   -41.1662     2.9368    56.4517   250.0560     0.000
      8     1.4750    -0.0000     1.4750    41.2491    14.7000     50.125     11.000 150721.000     60.000    34.2388   -20.0773   -20.7635   120.0962    -0.1480    -3.0001   -70.4425   250.0000   300.0000    85.7244    23.0454     3.0010     1.0017    14.0000    10.0000    17.0000    10.0000    19.0000    20.0000     8.0000    12.0000    -0.0005     0.0005   159.4165   -41.1662     2.9366    55.9491   250.0600     0.000
      9     1.4750    -0.0000     1.4750    40.7498    14.7000     50.573     14.000 150721.000     60.000    34.3928   -20.0773   -20.8578   120.0962    -0.1480    -3.0001   -70.0929   250.0000   300.0000    85.1295    23.7129     3.0010     1.0017    14.0000    10.0000    17.0000    10.0000    19.0000    20.0000     8.0000    12.0000    -0.0005     0.0005   159.4165   -41.1662     2.9367    55.4498   249.9010     0.000
     10     1.4750    -0.0000     1.4751    40.2506    14.7000     51.042      7.000 150721.000     60.000    34.5490   -20.0773   -20.9534   120.0962    -0.1480    -3.0001   -69.7420   250.0000   300.0000    84.5479    24.3662     3.0010     1.0017    14.0000    10.0000    17.0000    10.0000    19.0000    20.0000     8.0000    12.0000    -0.0005     0.0005   159.4165   -41.1662     2.9367    54.9506   250.0030     0.000
     11     1.4750    -0.0000     1.4751    39.7485    14.7000     51.556     13.000 150721.000     60.000    34.7072   -20.0773   -21.0509   120.0962    -0.1480    -3.0001   -69.3900   250.0000   300.0000    83.9781    25.0062     3.0010     1.0017    14.0000    10.0000    17.0000    10.0000    19.0000    20.0000     8.0000    12.0000    -0.0005     0.0005   159.4165   -41.1662     2.9367    54.4485   250.0780     0.000
     12     1.4750    -0.0000     1.4750    39.2504    14.7000     51.815      8.000 150721.000     60.000    34.8677   -20.0773   -21.1490   120.0962    -0.1480    -3.0001   -69.0366   250.0000   300.0000    83.4194    25.6322     3.0010     1.0017    14.0000    10.0000    17.0000    10.0000    19.0000    20.0000     8.0000    12.0000    -0.0005     0.0005   159.4165   -41.1662     2.9367    53.9504   250.0770     0.000
     13     1.4750    -0.0000     1.4750    38.7502    14.7000     51.856      9.000 150721.000     60.000    35.0304   -20.0773   -21.2488   120.0962    -0.1480    -3.0001   -68.6819   250.0000   300.0000    82.8711    26.2495     3.0010     1.0017    14.0000    10.0000    17.0000    10.0000    19.0000    20.0000     8.0000    12.0000    -0.0005     0.0005   159.4165   -41.1662     2.9367    53.4502   250.0430     0.000
     14     1.4750    -0.0000     1.4750    38.2507    14.7000     51.918     13.000 150721.000     60.000    35.1954   -20.0773   -21.3500   120.0962    -0.1480    -3.0001   -68.3260   250.0000   300.0000    82.3325    26.8560     3.0010     1.0017    14.0000    10.0000    17.0000    10.0000    19.0000    20.0000     8.0000    12.0000    -0.0005     0.0005   159.4165   -41.1662     2.9367    52.9507   250.0420     0.000
     15     1.4750    -0.0000     1.4750    37.7492    14.7000     51.623      6.000 150721.000     60.000    35.3628   -20.0773   -21.4530   120.0962    -0.1480    -3.0001   -67.9687   250.0000   300.0000    81.8026    27.4544     3.0010     1.0017    14.0000    10.0000    17.0000    10.0000    19.0000    20.0000     8.0000    12.0000    -0.0005     0.0005   159.4165   -41.1662     2.9366    52.4493   250.0000     0.000
     16     1.4750    -0.0000     1.4750    37.2504    14.7000     51.254      8.000 150721.000     60.000    35.5325   -20.0773   -21.5570   120.0962    -0.1480    -3.0001   -67.6100   250.0000   300.0000    81.2807    28.0434     3.0010     1.0017    14.0000    10.0000    17.0000    10.0000    19.0000    20.0000     8.0000    12.0000    -0.0005     0.0005   159.4165   -41.1662     2.9367    51.9504   249.9250     0.000
     17     1.4750    -0.0000     1.4750    36.7498    14.7000     50.732      7.000 150721.000     60.000    35.7048   -20.0773   -21.6629   120.0962    -0.1480    -3.0001   -67.2500   250.0000   300.0000    80.7671    28.6241     3.0010     1.0017    14.0000    10.0000    17.0000    10.0000    19.0000    20.0000     8.0000    12.0000    -0.0005     0.0005   159.4165   -41.1662     2.9367    51.4498   250.0170     0.000
     18     1.4750    -0.0000     1.4751    36.2495    14.7000     49.722      2.000 150721.000     60.000    35.8795   -20.0773   -21.7703   120.0962    -0.1480    -3.0001   -66.8886   250.0000   300.0000    80.2606    29.2001     3.0010     1.0017    14.0000    10.0000    17.0000    10.0000    19.0000    20.0000     8.0000    12.0000    -0.0005     0.0005   159.4165   -41.1662     2.9367    50.9495   249.8760     0.000
     19     1.4750    -0.0000     1.4750    35.7495    14.7000     48.694      7.000 150721.000     60.000    36.0569   -20.0773   -21.8792   120.0962    -0.1480    -3.0001   -66.5258   250.0000   300.0000    79.7608    29.7651     3.0010     1.0017    14.0000    10.0000    17.0000    10.0000    19.0000    20.0000     8.0000    12.0000    -0.0005     0.0005   159.4165   -41.1662     2.9367    50.4495   250.0960     0.000
     20     1.4750    -0.0000     1.4750    35.2506    14.7000     47.382      4.000 150721.000     60.000    36.2369   -20.0773   -21.9895   120.0962    -0.1480    -3.0001   -66.1616   250.0000   300.0000    79.2676    30.3249     3.0010     1.0017    14.0000    10.0000    17.0000    10.0000    19.0000    20.0000     8.0000    12.0000    -0.0005     0.0005   159.4165   -41.1662     2.9367    49.9507   250.0570     0.000
     21     1.4750    -0.0000     1.4749    34.7508    14.7000     46.322     10.000 150721.000     60.000    36.4196   -20.0773   -22.1018   120.0962    -0.1480    -3.0001   -65.7959   250.0000   300.0000    78.7802    30.8765     3.0010     1.0017    14.0000    10.0000    17.0000    10.0000    19.0000    20.0000     8.0000    12.0000    -0.0005     0.0005   159.4165   -41.1662     2.9367    49.4509   249.9080     0.000
     22     1.4750    -0.0000     1.4750    34.2495    14.7000     45.707      8.000 150721.000     60.000    36.6052   -20.0773   -22.2161   120.0962    -0.1480    -3.0001   -65.4288   250.0000   300.0000    78.2986    31.4261     3.0010     1.0017    14.0000    10.0000    17.0000    10.0000    19.0000    20.0000     8.0000    12.0000    -0.0005     0.0005   159.4165   -41.1662     2.9367    48.9496   249.9020     0.000
     23     1.4751    -0.0000     1.4751    33.7503    14.7000     44.639      5.000 150721.000     60.000    36.7936   -20.0773   -22.3317   120.0962    -0.1480    -3.0001   -65.0601   250.0000   300.0000    77.8221    31.9712     3.0010     1.0017    14.0000    10.0000    17.0000    10.0000    19.0000    20.0000     8.0000    12.0000    -0.0005     0.0005   159.4165   -41.1662     2.9368    48.4503   250.0830     0.000
     24     1.4750    -0.0000     1.4750    33.2499    14.7000     44.210      7.000 150721.000     60.000    36.9849   -20.0773   -22.4494   120.0962    -0.1480    -3.0001   -64.6899   250.0000   300.0000    77.3509    32.5066     3.0010     1.0017    14.0000    10.0000    17.0000    10.0000    19.0000    20.0000     8.0000    12.0000    -0.0005     0.0005   159.4165   -41.1662     2.9367    47.9499   250.0450     0.000
     25     1.4750    -0.0000     1.4750    32.7491    14.7000     44.110      8.000 150721.000     60.000    37.1793   -20.0773   -22.5691   120.0962    -0.1480    -3.0001   -64.3182   250.0000   300.0000    76.8847    33.0379     3.0010     1.0017    14.0000    10.0000    17.0000    10.0000    19.0000    20.0000     8.0000    12.0000    -0.0005     0.0005   159.4165   -41.1662     2.9366    47.4491   250.0410     0.000
     26     1.4750    -0.0000     1.4750    32.2505    14.7000     43.932      9.000 150721.000     60.000    37.3767   -20.0773   -22.6903   120.0962    -0.1480    -3.0001   -63.9448   250.0000   300.0000    76.4228    33.5680     3.0010     1.0017    14.0000    10.0000    17.0000    10.0000    19.0000    20.0000     8.0000    12.0000    -0.0005     0.0005   159.4165   -41.1662     2.9367    46.9505   250.0430     0.000
     27     1.4750    -0.0000     1.4750    31.7500    14.7000     43.598      6.000 150721.000     60.000    37.5773   -20.0773   -22.8138   120.0962    -0.1480    -3.0001   -63.5699   250.0000   300.0000    75.9649    34.0914     3.0010     1.0017    14.0000    10.0000    17.0000    10.0000    19.0000    20.0000     8.0000    12.0000    -0.0005     0.0005   159.4165   -41.1662     2.9367    46.4500   250.0190     0.000
     28     1.4750    -0.0000     1.4751    31.2499    14.7000     43.310      6.000 150721.000     60.000    37.7812   -20.0773   -22.9393   120.0962    -0.1480    -3.0001   -63.1934   250.0000   300.0000    75.5114    34.6141     3.0010     1.0017    14.0000    10.0000    17.0000    10.0000    19.0000    20.0000     8.0000    12.0000    -0.0005     0.0005   159.4165   -41.1662     2.9368    45.9500   249.8890     0.000
     29     1.4750    -0.0000     1.4750    30.7501    14.7000     42.880      5.000 150721.000     60.000    37.9885   -20.0773   -23.0668   120.0962    -0.1480    -3.0001   -62.8152   250.0000   300.0000    75.0614    35.1302     3.0010     1.0017    14.0000    10.0000    17.0000    10.0000    19.0000    20.0000     8.0000    12.0000    -0.0005     0.0005   159.4165   -41.1662     2.9367    45.4501   249.9110     0.000
     30     1.4750    -0.0000     1.4750    30.2507    14.7000     42.428      7.000 150721.000     60.000    38.1992   -20.0773   -23.1964   120.0962    -0.1480    -3.0001   -62.4354   250.0000   300.0000    74.6156    35.6420     3.0010     1.0017    14.0000    10.0000    17.0000    10.0000    19.0000    20.0000     8.0000    12.0000    -0.0005     0.0005   159.4165   -41.1662     2.9367    44.9507   249.9120     0.000
     31     1.4750    -0.0000     1.4750    29.7489    14.7000     42.360      9.000 150721.000     60.000    38.4134   -20.0773   -23.3287   120.0962    -0.1480    -3.0001   -62.0538   250.0000   300.0000    74.1728    36.1535     3.0010     1.0017    14.0000    10.0000    17.0000    10.0000    19.0000    20.0000     8.0000    12.0000    -0.0005     0.0005   159.4165   -41.1662     2.9367    44.4490   249.8730     0.000
     32     1.4750    -0.0000     1.4750    29.2509    14.7000     41.879      8.000 150721.000     60.000    38.6313   -20.0773   -23.4624   120.0962    -0.1480    -3.0001   -61.6704   250.0000   300.0000    73.7334    36.6592     3.0010     1.0017    14.0000    10.0000    17.0000    10.0000    19.0000    20.0000     8.0000    12.0000    -0.0005     0.0005   159.4165   -41.1662     2.9367    43.9509   250.0300     0.000
     33     1.4750    -0.0000     1.4750    28.7500    14.7000     41.689     10.000 150721.000     60.000    38.8530   -20.0773   -23.5992   120.0962    -0.1480    -3.0001   -61.2854   250.0000   300.0000    73.2965    37.1659     3.0010     1.0017    14.0000    10.0000    17.0000    10.0000    19.0000    20.0000     8.0000    12.0000    -0.0005     0.0005   159.4165   -41.1662     2.9367    43.4500   250.0900     0.000
     34     1.4750    -0.0000     1.4749    28.2501    14.7000     41.621      6.000 150721.000     60.000    39.0785   -20.0773   -23.7381   120.0962    -0.1480    -3.0001   -60.8985   250.0000   300.0000    72.8636    37.6651     3.0010     1.0017    14.0000    10.0000    17.0000    10.0000    19.0000    20.0000     8.0000    12.0000    -0.0005     0.0005   159.4165   -41.1662     2.9366    42.9501   250.0910     0.000
     35     1.4751    -0.0000     1.4750    27.7507    14.7000     41.433      7.000 150721.000     60.000    39.3079   -20.0773   -23.8794   120.0962    -0.1480    -3.0001   -60.5098   250.0000   300.0000    72.4329    38.1680     3.0010     1.0017    14.0000    10.0000    17.0000    10.0000    19.0000    20.0000     8.0000    12.0000    -0.0005     0.0005   159.4165   -41.1662     2.9368    42.4507   250.0620     0.000
     36     1.4750    -0.0000     1.4750    27.2498    14.7000     40.831     12.000 150721.000     60.000    39.5415   -20.0773   -24.0236   120.0962    -0.1480    -3.0001   -60.1192   250.0000   300.0000    72.0046    38.6633     3.0010     1.0017    14.0000    10.0000    17.0000    10.0000    19.0000    20.0000     8.0000    12.0000    -0.0005     0.0005   159.4165   -41.1662     2.9366    41.9498   250.0950     0.000
     37     1.4751    -0.0000     1.4751    26.7506    14.7000     40.067     11.000 150721.000     60.000    39.7792   -20.0773   -24.1700   120.0962    -0.1480    -3.0001   -59.7267   250.0000   300.0000    71.5793    39.1615     3.0010     1.0017    14.0000    10.0000    17.0000    10.0000    19.0000    20.0000     8.0000    12.0000    -0.0005     0.0005   159.4165   -41.1662     2.9368    41.4506   250.0390     0.000
     38     1.4750    -0.0000     1.4750    26.2495    14.7000     39.361     11.000 150721.000     60.000    40.0214   -20.0773   -24.3197   120.0962    -0.1480    -3.0001   -59.3323   250.0000   300.0000    71.1559    39.6538     3.0010     1.0017    14.0000    10.0000    17.0000    10.0000    19.0000    20.0000     8.0000    12.0000    -0.0005     0.0005   159.4165   -41.1662     2.9367    40.9495   250.0870     0.000
     39     1.4750    -0.0000     1.4750    25.7498    14.7000     38.261      9.000 150721.000     60.000    40.2680   -20.0773   -24.4718   120.0962    -0.1480    -3.0001   -58.9359   250.0000   300.0000    70.7353    40.1460     3.0010     1.0017    14.0000    10.0000    17.0000    10.0000    19.0000    20.0000     8.0000    12.0000    -0.0005     0.0005   159.4165   -41.1662     2.9367    40.4498   250.0250     0.000
     40     1.4751    -0.0000     1.4750    25.2507    14.7000     37.804      6.000 150721.000     60.000    40.5192   -20.0773   -24.6265   120.0962    -0.1480    -3.0001   -58.5375   250.0000   300.0000    70.3162    40.6373     3.0010     1.0017    14.0000    10.0000    17.0000    10.0000    19.0000    20.0000     8.0000    12.0000    -0.0005     0.0005   159.4165   -41.1662     2.9368    39.9508   249.8850     0.000
     41     1.4750    -0.0000     1.4750    24.7498    14.7000     37.553     11.000 150721.000     60.000    40.7751   -20.0773   -24.7849   120.0962    -0.1480    -3.0001   -58.1370   250.0000   300.0000    69.8995    41.1263     3.0010     1.0017    14.0000    10.0000    17.0000    10.0000    19.0000    20.0000     8.0000    12.0000    -0.0005     0.0005   159.4165   -41.1662     2.9367    39.4498   249.8800     0.000
     42     1.4750    -0.0000     1.4751    24.2499    14.7000     37.680     10.000 150721.000     60.000    41.0360   -20.0773   -24.9460   120.0962    -0.1480    -3.0001   -57.7345   250.0000   300.0000    69.4846    41.6149     3.0010     1.0017    14.0000    10.0000    17.0000    10.0000    19.0000    20.0000     8.0000    12.0000    -0.0005     0.0005   159.4165   -41.1662     2.9368    38.9499   250.0950     0.000
     43     1.4750    -0.0000     1.4750    23.7502    14.7000     38.025     12.000 150721.000     60.000    41.3020   -20.0773   -25.1102   120.0962    -0.1480    -3.0001   -57.3298   250.0000   300.0000    69.0714    42.0995     3.0010     1.0017    14.0000    10.0000    17.0000    10.0000    19.0000    20.0000     8.0000    12.0000    -0.0005     0.0005   159.4165   -41.1662     2.9367    38.4502   250.0540     0.000
