# scan = 59
# date = 9/22/2024
# time = 12:32:47 PM
# proposal = 34735
# experiment = Magnons and paramagnon coupling in MnTe
# experiment_number = 816
# command = scan h 1.325 k 0.0 l 1.325 e 42 1 0.5 ef 14.7 preset mcu 60
# builtin_command = scan h 1.325 k 0.0 l 1.325 e 42 1 0.5 ef 14.7 preset mcu 60
# users = Benjamin Frandsen, Songxue Chi, George Yumnam, Huibo Cao, Michael Manley, Raphael Hermann, Eleanor Clements
# local_contact = Eleanor Clements
# scan_title = H0L scans along (101) to (1.5, 0, 1.5) at H/L = 1.325, mcu = 60, E = 37.5 to 0.5 mev
# monochromator = PG002
# analyzer = Pg002
# sense = -+-
# collimation = 48-40-40-120
# samplename = MnTe
# sampletype = crystal
# samplemosaic = 30.000000
# latticeconstants = 4.134597,4.134597,6.679746,90.000000,90.000000,120.000000
# ubmatrix = -0.273127,-0.149222,-0.030247,-0.056745,-0.024153,0.146560,-0.013326,0.234830,-0.004146
# mode = 0
# plane_normal = -0.052339,0.017444,0.998477
# ubconf = UB21Sep2024_13243PM.ini
# preset_type = normal 
# preset_channel = mcu
# preset_value = 60.000000
# def_x = e
# def_y = detector
# col_headers = 
#   Pt.          h          k          l          e         ef       time   detector    monitor        mcu focal_length         m1         m2   mcrystal       marc     mtrans     mfocus       temp     temp_2         s1         s2        sgl        sgu        bbb        bbl        bbr        bbt        bab        bal        bar        bat        stl        stu         a1         a2          q         ei        vti     sample
      1     1.3251    -0.0000     1.3250    42.0048    14.7000     51.536     10.000 150721.000     60.000    34.0116   -20.0773   -20.6232   120.0962    -0.1480    -3.0001   -70.9646   250.0000   300.0000    97.1193     9.3088     3.0010     1.0017    14.0000    10.0000    17.0000    10.0000    19.0000    20.0000     8.0000    12.0000    -0.0005     0.0005   159.4167   -41.1662     2.6382    56.7048   250.0730     0.000
      2     1.3250    -0.0000     1.3250    41.4988    14.7000     51.447     15.000 150721.000     60.000    34.1626   -20.0773   -20.7168   120.0962    -0.1480    -3.0001   -70.6168   250.0000   300.0000    95.6830    10.7334     3.0010     1.0017    14.0000    10.0000    17.0000    10.0000    19.0000    20.0000     8.0000    12.0000    -0.0005     0.0005   159.4167   -41.1662     2.6380    56.1988   250.0230     0.000
      3     1.3250    -0.0000     1.3251    41.0001    14.7000     51.533     13.000 150721.000     60.000    34.3156   -20.0773   -20.8104   120.0962    -0.1480    -3.0001   -70.2678   250.0000   300.0000    94.4093    11.9954     3.0010     1.0017    14.0000    10.0000    17.0000    10.0000    19.0000    20.0000     8.0000    12.0000    -0.0005     0.0005   159.4167   -41.1662     2.6381    55.7002   249.9880     0.000
      4     1.3250    -0.0000     1.3251    40.4988    14.7000     51.634      4.000 150721.000     60.000    34.4706   -20.0773   -20.9057   120.0962    -0.1480    -3.0001   -69.9176   250.0000   300.0000    93.2504    13.1434     3.0010     1.0017    14.0000    10.0000    17.0000    10.0000    19.0000    20.0000     8.0000    12.0000    -0.0005     0.0005   159.4167   -41.1662     2.6380    55.1988   250.0720     0.000
      5     1.3250    -0.0000     1.3251    39.9998    14.7000     51.347     10.000 150721.000     60.000    34.6278   -20.0773   -21.0019   120.0962    -0.1480    -3.0001   -69.5662   250.0000   300.0000    92.1789    14.2042     3.0010     1.0017    14.0000    10.0000    17.0000    10.0000    19.0000    20.0000     8.0000    12.0000    -0.0005     0.0005   159.4167   -41.1662     2.6381    54.6998   249.8670     0.000
      6     1.3250    -0.0000     1.3252    39.5004    14.7000     51.960     12.000 150721.000     60.000    34.7872   -20.0773   -21.0996   120.0962    -0.1480    -3.0001   -69.2134   250.0000   300.0000    91.1759    15.1977     3.0010     1.0017    14.0000    10.0000    17.0000    10.0000    19.0000    20.0000     8.0000    12.0000    -0.0005     0.0005   159.4167   -41.1662     2.6381    54.2004   250.0800     0.000
      7     1.3250    -0.0000     1.3251    38.9994    14.7000     52.258     14.000 150721.000     60.000    34.9487   -20.0773   -21.1989   120.0962    -0.1480    -3.0001   -68.8594   250.0000   300.0000    90.2294    16.1326     3.0010     1.0017    14.0000    10.0000    17.0000    10.0000    19.0000    20.0000     8.0000    12.0000    -0.0005     0.0005   159.4167   -41.1662     2.6380    53.6994   249.8670     0.000
      8     1.3250    -0.0000     1.3251    38.5006    14.7000     52.271     14.000 150721.000     60.000    35.1126   -20.0773   -21.2992   120.0962    -0.1480    -3.0001   -68.5041   250.0000   300.0000    89.3289    17.0239     3.0010     1.0017    14.0000    10.0000    17.0000    10.0000    19.0000    20.0000     8.0000    12.0000    -0.0005     0.0005   159.4167   -41.1662     2.6381    53.2007   250.0620     0.000
      9     1.3250    -0.0000     1.3251    38.0001    14.7000     52.113     22.000 150721.000     60.000    35.2788   -20.0773   -21.4013   120.0962    -0.1480    -3.0001   -68.1475   250.0000   300.0000    88.4681    17.8757     3.0010     1.0017    14.0000    10.0000    17.0000    10.0000    19.0000    20.0000     8.0000    12.0000    -0.0005     0.0005   159.4167   -41.1662     2.6381    52.7001   250.0930     0.000
     10     1.3250    -0.0000     1.3250    37.4995    14.7000     51.923     17.000 150721.000     60.000    35.4473   -20.0773   -21.5049   120.0962    -0.1480    -3.0001   -67.7895   250.0000   300.0000    87.6414    18.6916     3.0010     1.0017    14.0000    10.0000    17.0000    10.0000    19.0000    20.0000     8.0000    12.0000    -0.0005     0.0005   159.4167   -41.1662     2.6380    52.1995   250.0190     0.000
     11     1.3251    -0.0000     1.3250    37.0014    14.7000     51.004     15.000 150721.000     60.000    35.6183   -20.0773   -21.6094   120.0962    -0.1480    -3.0001   -67.4302   250.0000   300.0000    86.8449    19.4804     3.0010     1.0017    14.0000    10.0000    17.0000    10.0000    19.0000    20.0000     8.0000    12.0000    -0.0005     0.0005   159.4167   -41.1662     2.6381    51.7015   250.0850     0.000
     12     1.3250    -0.0000     1.3250    36.4986    14.7000     50.534     14.000 150721.000     60.000    35.7918   -20.0773   -21.7166   120.0962    -0.1480    -3.0001   -67.0695   250.0000   300.0000    86.0744    20.2428     3.0010     1.0017    14.0000    10.0000    17.0000    10.0000    19.0000    20.0000     8.0000    12.0000    -0.0005     0.0005   159.4167   -41.1662     2.6380    51.1986   249.8620     0.000
     13     1.3251    -0.0000     1.3251    36.0005    14.7000     49.505      9.000 150721.000     60.000    35.9679   -20.0773   -21.8243   120.0962    -0.1480    -3.0001   -66.7074   250.0000   300.0000    85.3263    20.9851     3.0010     1.0017    14.0000    10.0000    17.0000    10.0000    19.0000    20.0000     8.0000    12.0000    -0.0005     0.0005   159.4167   -41.1662     2.6382    50.7005   250.0060     0.000
     14     1.3250    -0.0000     1.3250    35.5005    14.7000     48.284     15.000 150721.000     60.000    36.1466   -20.0773   -21.9341   120.0962    -0.1480    -3.0001   -66.3439   250.0000   300.0000    84.6000    21.7013     3.0010     1.0017    14.0000    10.0000    17.0000    10.0000    19.0000    20.0000     8.0000    12.0000    -0.0005     0.0005   159.4167   -41.1662     2.6381    50.2005   250.0940     0.000
     15     1.3250    -0.0000     1.3251    35.0001    14.7000     47.266     13.000 150721.000     60.000    36.3279   -20.0773   -22.0456   120.0962    -0.1480    -3.0001   -65.9790   250.0000   300.0000    83.8920    22.4019     3.0010     1.0017    14.0000    10.0000    17.0000    10.0000    19.0000    20.0000     8.0000    12.0000    -0.0005     0.0005   159.4167   -41.1662     2.6381    49.7001   249.9110     0.000
     16     1.3250    -0.0000     1.3249    34.5003    14.7000     45.899     14.000 150721.000     60.000    36.5121   -20.0773   -22.1587   120.0962    -0.1480    -3.0001   -65.6125   250.0000   300.0000    83.2007    23.0830     3.0010     1.0017    14.0000    10.0000    17.0000    10.0000    19.0000    20.0000     8.0000    12.0000    -0.0005     0.0005   159.4167   -41.1662     2.6380    49.2003   250.1020     0.000
     17     1.3250    -0.0000     1.3250    33.9988    14.7000     45.601      7.000 150721.000     60.000    36.6990   -20.0773   -22.2739   120.0962    -0.1480    -3.0001   -65.2446   250.0000   300.0000    82.5254    23.7525     3.0010     1.0017    14.0000    10.0000    17.0000    10.0000    19.0000    20.0000     8.0000    12.0000    -0.0005     0.0005   159.4167   -41.1662     2.6380    48.6988   250.0470     0.000
     18     1.3250    -0.0000     1.3251    33.5008    14.7000     44.696     13.000 150721.000     60.000    36.8889   -20.0773   -22.3902   120.0962    -0.1480    -3.0001   -64.8752   250.0000   300.0000    81.8639    24.4070     3.0010     1.0017    14.0000    10.0000    17.0000    10.0000    19.0000    20.0000     8.0000    12.0000    -0.0005     0.0005   159.4167   -41.1662     2.6381    48.2008   250.0720     0.000
     19     1.3250    -0.0000     1.3250    33.0003    14.7000     44.421      6.000 150721.000     60.000    37.0817   -20.0773   -22.5089   120.0962    -0.1480    -3.0001   -64.5042   250.0000   300.0000    81.2150    25.0464     3.0010     1.0017    14.0000    10.0000    17.0000    10.0000    19.0000    20.0000     8.0000    12.0000    -0.0005     0.0005   159.4167   -41.1662     2.6380    47.7003   250.0810     0.000
     20     1.3250    -0.0000     1.3250    32.5000    14.7000     44.281      9.000 150721.000     60.000    37.2776   -20.0773   -22.6294   120.0962    -0.1480    -3.0001   -64.1317   250.0000   300.0000    80.5784    25.6755     3.0010     1.0017    14.0000    10.0000    17.0000    10.0000    19.0000    20.0000     8.0000    12.0000    -0.0005     0.0005   159.4167   -41.1662     2.6380    47.2000   249.8660     0.000
     21     1.3250    -0.0000     1.3250    31.9994    14.7000     43.946     11.000 150721.000     60.000    37.4766   -20.0773   -22.7520   120.0962    -0.1480    -3.0001   -63.7576   250.0000   300.0000    79.9521    26.2952     3.0010     1.0017    14.0000    10.0000    17.0000    10.0000    19.0000    20.0000     8.0000    12.0000    -0.0005     0.0005   159.4167   -41.1662     2.6380    46.6994   249.8280     0.000
     22     1.3250    -0.0000     1.3250    31.5007    14.7000     43.775     10.000 150721.000     60.000    37.6789   -20.0773   -22.8761   120.0962    -0.1480    -3.0001   -63.3819   250.0000   300.0000    79.3364    26.9035     3.0010     1.0017    14.0000    10.0000    17.0000    10.0000    19.0000    20.0000     8.0000    12.0000    -0.0005     0.0005   159.4167   -41.1662     2.6381    46.2007   249.9100     0.000
     23     1.3250    -0.0000     1.3250    30.9986    14.7000     43.351     11.000 150721.000     60.000    37.8844   -20.0773   -23.0031   120.0962    -0.1480    -3.0001   -63.0045   250.0000   300.0000    78.7300    27.5031     3.0010     1.0017    14.0000    10.0000    17.0000    10.0000    19.0000    20.0000     8.0000    12.0000    -0.0005     0.0005   159.4167   -41.1662     2.6380    45.6986   250.0000     0.000
     24     1.3250    -0.0000     1.3250    30.5001    14.7000     42.859     14.000 150721.000     60.000    38.0934   -20.0773   -23.1314   120.0962    -0.1480    -3.0001   -62.6255   250.0000   300.0000    78.1322    28.0924     3.0010     1.0017    14.0000    10.0000    17.0000    10.0000    19.0000    20.0000     8.0000    12.0000    -0.0005     0.0005   159.4167   -41.1662     2.6380    45.2001   250.0270     0.000
     25     1.3250    -0.0000     1.3250    30.0004    14.7000     42.399     10.000 150721.000     60.000    38.3059   -20.0773   -23.2621   120.0962    -0.1480    -3.0001   -62.2448   250.0000   300.0000    77.5424    28.6747     3.0010     1.0017    14.0000    10.0000    17.0000    10.0000    19.0000    20.0000     8.0000    12.0000    -0.0005     0.0005   159.4167   -41.1662     2.6380    44.7004   250.0660     0.000
     26     1.3250    -0.0000     1.3249    29.5002    14.7000     42.286     11.000 150721.000     60.000    38.5219   -20.0773   -23.3952   120.0962    -0.1480    -3.0001   -61.8623   250.0000   300.0000    76.9601    29.2489     3.0010     1.0017    14.0000    10.0000    17.0000    10.0000    19.0000    20.0000     8.0000    12.0000    -0.0005     0.0005   159.4167   -41.1662     2.6380    44.2002   250.0680     0.000
     27     1.3250    -0.0000     1.3250    29.0001    14.7000     42.042     13.000 150721.000     60.000    38.7417   -20.0773   -23.5306   120.0962    -0.1480    -3.0001   -61.4781   250.0000   300.0000    76.3849    29.8194     3.0010     1.0017    14.0000    10.0000    17.0000    10.0000    19.0000    20.0000     8.0000    12.0000    -0.0005     0.0005   159.4167   -41.1662     2.6381    43.7001   250.0490     0.000
     28     1.3251    -0.0000     1.3251    28.5002    14.7000     41.852      6.000 150721.000     60.000    38.9652   -20.0773   -23.6683   120.0962    -0.1480    -3.0001   -61.0922   250.0000   300.0000    75.8161    30.3834     3.0010     1.0017    14.0000    10.0000    17.0000    10.0000    19.0000    20.0000     8.0000    12.0000    -0.0005     0.0005   159.4167   -41.1662     2.6382    43.2002   250.0070     0.000
     29     1.3250    -0.0000     1.3250    28.0001    14.7000     41.682     14.000 150721.000     60.000    39.1927   -20.0773   -23.8085   120.0962    -0.1480    -3.0001   -60.7044   250.0000   300.0000    75.2539    30.9361     3.0010     1.0017    14.0000    10.0000    17.0000    10.0000    19.0000    20.0000     8.0000    12.0000    -0.0005     0.0005   159.4167   -41.1662     2.6381    42.7001   250.0690     0.000
     30     1.3250    -0.0000     1.3249    27.5001    14.7000     41.207     11.000 150721.000     60.000    39.4242   -20.0773   -23.9512   120.0962    -0.1480    -3.0001   -60.3147   250.0000   300.0000    74.6964    31.4836     3.0010     1.0017    14.0000    10.0000    17.0000    10.0000    19.0000    20.0000     8.0000    12.0000    -0.0005     0.0005   159.4167   -41.1662     2.6380    42.2001   250.0230     0.000
     31     1.3250    -0.0000     1.3250    27.0003    14.7000     40.313     15.000 150721.000     60.000    39.6598   -20.0773   -24.0965   120.0962    -0.1480    -3.0001   -59.9232   250.0000   300.0000    74.1450    32.0287     3.0010     1.0017    14.0000    10.0000    17.0000    10.0000    19.0000    20.0000     8.0000    12.0000    -0.0005     0.0005   159.4167   -41.1662     2.6380    41.7003   250.0470     0.000
     32     1.3250    -0.0000     1.3251    26.4999    14.7000     39.626      6.000 150721.000     60.000    39.8998   -20.0773   -24.2446   120.0962    -0.1480    -3.0001   -59.5297   250.0000   300.0000    73.5986    32.5696     3.0010     1.0017    14.0000    10.0000    17.0000    10.0000    19.0000    20.0000     8.0000    12.0000    -0.0005     0.0005   159.4167   -41.1662     2.6381    41.2000   250.0720     0.000
     33     1.3250    -0.0000     1.3250    26.0000    14.7000     38.746      8.000 150721.000     60.000    40.1441   -20.0773   -24.3953   120.0962    -0.1480    -3.0001   -59.1343   250.0000   300.0000    73.0560    33.1029     3.0010     1.0017    14.0000    10.0000    17.0000    10.0000    19.0000    20.0000     8.0000    12.0000    -0.0005     0.0005   159.4167   -41.1662     2.6380    40.7001   250.0930     0.000
     34     1.3250    -0.0000     1.3250    25.5007    14.7000     38.393     18.000 150721.000     60.000    40.3930   -20.0773   -24.5487   120.0962    -0.1480    -3.0001   -58.7370   250.0000   300.0000    72.5189    33.6322     3.0010     1.0017    14.0000    10.0000    17.0000    10.0000    19.0000    20.0000     8.0000    12.0000    -0.0005     0.0005   159.4167   -41.1662     2.6380    40.2007   249.8550     0.000
     35     1.3251    -0.0000     1.3250    25.0005    14.7000     37.949     10.000 150721.000     60.000    40.6465   -20.0773   -24.7053   120.0962    -0.1480    -3.0001   -58.3375   250.0000   300.0000    71.9849    34.1609     3.0010     1.0017    14.0000    10.0000    17.0000    10.0000    19.0000    20.0000     8.0000    12.0000    -0.0005     0.0005   159.4167   -41.1662     2.6381    39.7005   249.9010     0.000
     36     1.3250    -0.0000     1.3250    24.4998    14.7000     37.933     14.000 150721.000     60.000    40.9049   -20.0773   -24.8650   120.0962    -0.1480    -3.0001   -57.9360   250.0000   300.0000    71.4551    34.6814     3.0010     1.0017    14.0000    10.0000    17.0000    10.0000    19.0000    20.0000     8.0000    12.0000    -0.0005     0.0005   159.4167   -41.1662     2.6380    39.1998   250.0620     0.000
     37     1.3251    -0.0000     1.3251    24.0000    14.7000     37.920     11.000 150721.000     60.000    41.1683   -20.0773   -25.0277   120.0962    -0.1480    -3.0001   -57.5324   250.0000   300.0000    70.9289    35.2033     3.0010     1.0017    14.0000    10.0000    17.0000    10.0000    19.0000    20.0000     8.0000    12.0000    -0.0005     0.0005   159.4167   -41.1662     2.6381    38.7000   250.0030     0.000
     38     1.3250    -0.0000     1.3250    23.4996    14.7000     38.689     11.000 150721.000     60.000    41.4369   -20.0773   -25.1937   120.0962    -0.1480    -3.0001   -57.1267   250.0000   300.0000    70.4054    35.7170     3.0010     1.0017    14.0000    10.0000    17.0000    10.0000    19.0000    20.0000     8.0000    12.0000    -0.0005     0.0005   159.4167   -41.1662     2.6380    38.1997   250.0610     0.000
     39     1.3250    -0.0000     1.3250    23.0002    14.7000     39.591     15.000 150721.000     60.000    41.7108   -20.0773   -25.3628   120.0962    -0.1480    -3.0001   -56.7188   250.0000   300.0000    69.8858    36.2287     3.0010     1.0017    14.0000    10.0000    17.0000    10.0000    19.0000    20.0000     8.0000    12.0000    -0.0005     0.0005   159.4167   -41.1662     2.6380    37.7002   250.0290     0.000
     40     1.3250    -0.0000     1.3250    22.5004    14.7000     40.421     14.000 150721.000     60.000    41.9902   -20.0773   -25.5355   120.0962    -0.1480    -3.0001   -56.3086   250.0000   300.0000    69.3688    36.7391     3.0010     1.0017    14.0000    10.0000    17.0000    10.0000    19.0000    20.0000     8.0000    12.0000    -0.0005     0.0005   159.4167   -41.1662     2.6381    37.2004   250.0900     0.000
     41     1.3250    -0.0000     1.3250    21.9997    14.7000     40.944     13.000 150721.000     60.000    42.2752   -20.0773   -25.7121   120.0962    -0.1480    -3.0001   -55.8961   250.0000   300.0000    68.8539    37.2442     3.0010     1.0017    14.0000    10.0000    17.0000    10.0000    19.0000    20.0000     8.0000    12.0000    -0.0005     0.0005   159.4167   -41.1662     2.6380    36.6997   250.0640     0.000
     42     1.3250    -0.0000     1.3250    21.4996    14.7000     41.484     13.000 150721.000     60.000    42.5662   -20.0773   -25.8921   120.0962    -0.1480    -3.0001   -55.4813   250.0000   300.0000    68.3414    37.7503     3.0010     1.0017    14.0000    10.0000    17.0000    10.0000    19.0000    20.0000     8.0000    12.0000    -0.0005     0.0005   159.4167   -41.1662     2.6380    36.1996   250.0920     0.000
     43     1.3250    -0.0000     1.3250    21.0006    14.7000     41.793     18.000 150721.000     60.000    42.8632   -20.0773   -26.0756   120.0962    -0.1480    -3.0001   -55.0642   250.0000   300.0000    67.8317    38.2505     3.0010     1.0017    14.0000    10.0000    17.0000    10.0000    19.0000    20.0000     8.0000    12.0000    -0.0005     0.0005   159.4167   -41.1662     2.6380    35.7006   250.0250     0.000
