# scan = 52
# date = 9/22/2024
# time = 5:15:10 AM
# proposal = 34735
# experiment = Magnons and paramagnon coupling in MnTe
# experiment_number = 816
# command = scan h 1.4 k 0.0 l 1.4 e 45 1 0.5 ef 14.7 preset mcu 60
# builtin_command = scan h 1.4 k 0.0 l 1.4 e 45 1 0.5 ef 14.7 preset mcu 60
# users = Benjamin Frandsen, Songxue Chi, George Yumnam, Huibo Cao, Michael Manley, Raphael Hermann, Eleanor Clements
# local_contact = Eleanor Clements
# scan_title = H0L scans along (101) to (1.5, 0, 1.5) at H/L = 1.4, mcu = 60, E = 45 to 0.5 mev
# monochromator = PG002
# analyzer = Pg002
# sense = -+-
# collimation = 48-40-40-120
# samplename = MnTe
# sampletype = crystal
# samplemosaic = 30.000000
# latticeconstants = 4.134597,4.134597,6.679746,90.000000,90.000000,120.000000
# ubmatrix = -0.273127,-0.149222,-0.030247,-0.056745,-0.024153,0.146560,-0.013326,0.234830,-0.004146
# mode = 0
# plane_normal = -0.052339,0.017444,0.998477
# ubconf = UB21Sep2024_13243PM.ini
# preset_type = normal 
# preset_channel = mcu
# preset_value = 60.000000
# def_x = e
# def_y = detector
# col_headers = 
#   Pt.          h          k          l          e         ef       time   detector    monitor        mcu focal_length         m1         m2   mcrystal       marc     mtrans     mfocus       temp     temp_2         s1         s2        sgl        sgu        bbb        bbl        bbr        bbt        bab        bal        bar        bat        stl        stu         a1         a2          q         ei        vti     sample
      1     1.4001    -0.0000     1.4001    45.0050    14.7000     50.257     16.000 150721.000     60.000    33.1461   -20.0773   -20.0928   120.0962    -0.1480    -3.0001   -73.0266   250.0000   300.0000    96.7216    10.2592     3.0010     1.0017    14.0000    10.0000    17.0000    10.0000    19.0000    20.0000     8.0000    12.0000    -0.0005     0.0005   159.4167   -41.1662     2.7876    59.7050   250.0450     0.000
      2     1.4000    -0.0000     1.4001    44.5002    14.7000     49.731      6.000 150721.000     60.000    33.2857   -20.0773   -20.1792   120.0962    -0.1480    -3.0001   -72.6858   250.0000   300.0000    95.4725    11.5718     3.0010     1.0017    14.0000    10.0000    17.0000    10.0000    19.0000    20.0000     8.0000    12.0000    -0.0005     0.0005   159.4167   -41.1662     2.7874    59.2002   250.0390     0.000
      3     1.4000    -0.0000     1.4000    44.0002    14.7000     49.547      5.000 150721.000     60.000    33.4272   -20.0773   -20.2658   120.0962    -0.1480    -3.0001   -72.3439   250.0000   300.0000    94.3444    12.7523     3.0010     1.0017    14.0000    10.0000    17.0000    10.0000    19.0000    20.0000     8.0000    12.0000    -0.0005     0.0005   159.4167   -41.1662     2.7874    58.7002   249.8490     0.000
      4     1.4000    -0.0000     1.4000    43.4992    14.7000     48.842      7.000 150721.000     60.000    33.5705   -20.0773   -20.3538   120.0962    -0.1480    -3.0001   -72.0008   250.0000   300.0000    93.3077    13.8401     3.0010     1.0017    14.0000    10.0000    17.0000    10.0000    19.0000    20.0000     8.0000    12.0000    -0.0005     0.0005   159.4167   -41.1662     2.7873    58.1992   250.0700     0.000
      5     1.4000    -0.0000     1.4000    43.0000    14.7000     48.881     10.000 150721.000     60.000    33.7156   -20.0773   -20.4426   120.0962    -0.1480    -3.0001   -71.6566   250.0000   300.0000    92.3410    14.8531     3.0010     1.0017    14.0000    10.0000    17.0000    10.0000    19.0000    20.0000     8.0000    12.0000    -0.0005     0.0005   159.4167   -41.1662     2.7873    57.7000   250.0800     0.000
      6     1.4000    -0.0000     1.4001    42.4995    14.7000     49.338     11.000 150721.000     60.000    33.8626   -20.0773   -20.5328   120.0962    -0.1480    -3.0001   -71.3112   250.0000   300.0000    91.4320    15.8098     3.0010     1.0017    14.0000    10.0000    17.0000    10.0000    19.0000    20.0000     8.0000    12.0000    -0.0005     0.0005   159.4167   -41.1662     2.7874    57.1995   249.8690     0.000
      7     1.4000    -0.0000     1.4000    42.0000    14.7000     49.411     20.000 150721.000     60.000    34.0116   -20.0773   -20.6240   120.0962    -0.1480    -3.0001   -70.9646   250.0000   300.0000    90.5694    16.7153     3.0010     1.0017    14.0000    10.0000    17.0000    10.0000    19.0000    20.0000     8.0000    12.0000    -0.0005     0.0005   159.4167   -41.1662     2.7874    56.7000   250.0220     0.000
      8     1.4000    -0.0000     1.4001    41.5003    14.7000     50.369     15.000 150721.000     60.000    34.1626   -20.0773   -20.7165   120.0962    -0.1480    -3.0001   -70.6168   250.0000   300.0000    89.7470    17.5810     3.0010     1.0017    14.0000    10.0000    17.0000    10.0000    19.0000    20.0000     8.0000    12.0000    -0.0005     0.0005   159.4167   -41.1662     2.7874    56.2004   250.0580     0.000
      9     1.4000    -0.0000     1.4001    41.0006    14.7000     50.779     16.000 150721.000     60.000    34.3156   -20.0773   -20.8103   120.0962    -0.1480    -3.0001   -70.2678   250.0000   300.0000    88.9590    18.4084     3.0010     1.0017    14.0000    10.0000    17.0000    10.0000    19.0000    20.0000     8.0000    12.0000    -0.0005     0.0005   159.4167   -41.1662     2.7874    55.7007   249.9120     0.000
     10     1.4000    -0.0000     1.4001    40.4988    14.7000     50.970     16.000 150721.000     60.000    34.4706   -20.0773   -20.9057   120.0962    -0.1480    -3.0001   -69.9176   250.0000   300.0000    88.2001    19.2070     3.0010     1.0017    14.0000    10.0000    17.0000    10.0000    19.0000    20.0000     8.0000    12.0000    -0.0005     0.0005   159.4167   -41.1662     2.7874    55.1988   250.0160     0.000
     11     1.4000    -0.0000     1.4001    39.9998    14.7000     51.079     25.000 150721.000     60.000    34.6278   -20.0773   -21.0019   120.0962    -0.1480    -3.0001   -69.5662   250.0000   300.0000    87.4679    19.9785     3.0010     1.0017    14.0000    10.0000    17.0000    10.0000    19.0000    20.0000     8.0000    12.0000    -0.0005     0.0005   159.4167   -41.1662     2.7874    54.6998   250.0230     0.000
     12     1.4000    -0.0000     1.4001    39.5004    14.7000     51.702     29.000 150721.000     60.000    34.7872   -20.0773   -21.0996   120.0962    -0.1480    -3.0001   -69.2134   250.0000   300.0000    86.7588    20.7237     3.0010     1.0017    14.0000    10.0000    17.0000    10.0000    19.0000    20.0000     8.0000    12.0000    -0.0005     0.0005   159.4167   -41.1662     2.7874    54.2004   250.1080     0.000
     13     1.4000    -0.0000     1.4000    38.9994    14.7000     52.124     16.000 150721.000     60.000    34.9487   -20.0773   -21.1989   120.0962    -0.1480    -3.0001   -68.8594   250.0000   300.0000    86.0699    21.4474     3.0010     1.0017    14.0000    10.0000    17.0000    10.0000    19.0000    20.0000     8.0000    12.0000    -0.0005     0.0005   159.4167   -41.1662     2.7873    53.6994   250.0220     0.000
     14     1.4000    -0.0000     1.4000    38.5009    14.7000     52.065     16.000 150721.000     60.000    35.1126   -20.0773   -21.2991   120.0962    -0.1480    -3.0001   -68.5041   250.0000   300.0000    85.3999    22.1544     3.0010     1.0017    14.0000    10.0000    17.0000    10.0000    19.0000    20.0000     8.0000    12.0000    -0.0005     0.0005   159.4167   -41.1662     2.7874    53.2009   249.8490     0.000
     15     1.4000    -0.0000     1.4000    37.9999    14.7000     52.071     10.000 150721.000     60.000    35.2788   -20.0773   -21.4013   120.0962    -0.1480    -3.0001   -68.1475   250.0000   300.0000    84.7466    22.8422     3.0010     1.0017    14.0000    10.0000    17.0000    10.0000    19.0000    20.0000     8.0000    12.0000    -0.0005     0.0005   159.4167   -41.1662     2.7873    52.6999   250.0580     0.000
     16     1.4000    -0.0000     1.4001    37.4995    14.7000     51.844      6.000 150721.000     60.000    35.4473   -20.0773   -21.5049   120.0962    -0.1480    -3.0001   -67.7895   250.0000   300.0000    84.1093    23.5161     3.0010     1.0017    14.0000    10.0000    17.0000    10.0000    19.0000    20.0000     8.0000    12.0000    -0.0005     0.0005   159.4167   -41.1662     2.7874    52.1995   249.8750     0.000
     17     1.4001    -0.0000     1.4001    37.0012    14.7000     51.060     14.000 150721.000     60.000    35.6183   -20.0773   -21.6095   120.0962    -0.1480    -3.0001   -67.4302   250.0000   300.0000    83.4850    24.1761     3.0010     1.0017    14.0000    10.0000    17.0000    10.0000    19.0000    20.0000     8.0000    12.0000    -0.0005     0.0005   159.4167   -41.1662     2.7875    51.7012   250.0980     0.000
     18     1.4000    -0.0000     1.4000    36.4988    14.7000     50.425      6.000 150721.000     60.000    35.7918   -20.0773   -21.7165   120.0962    -0.1480    -3.0001   -67.0695   250.0000   300.0000    82.8743    24.8184     3.0010     1.0017    14.0000    10.0000    17.0000    10.0000    19.0000    20.0000     8.0000    12.0000    -0.0005     0.0005   159.4167   -41.1662     2.7873    51.1988   250.0780     0.000
     19     1.4000    -0.0000     1.4000    36.0005    14.7000     49.108     11.000 150721.000     60.000    35.9679   -20.0773   -21.8243   120.0962    -0.1480    -3.0001   -66.7074   250.0000   300.0000    82.2749    25.4521     3.0010     1.0017    14.0000    10.0000    17.0000    10.0000    19.0000    20.0000     8.0000    12.0000    -0.0005     0.0005   159.4167   -41.1662     2.7874    50.7005   249.8640     0.000
     20     1.4000    -0.0000     1.4000    35.5002    14.7000     48.347     17.000 150721.000     60.000    36.1466   -20.0773   -21.9341   120.0962    -0.1480    -3.0001   -66.3439   250.0000   300.0000    81.6864    26.0729     3.0010     1.0017    14.0000    10.0000    17.0000    10.0000    19.0000    20.0000     8.0000    12.0000    -0.0005     0.0005   159.4167   -41.1662     2.7873    50.2003   250.0100     0.000
     21     1.4000    -0.0000     1.4000    35.0001    14.7000     47.349      4.000 150721.000     60.000    36.3279   -20.0773   -22.0456   120.0962    -0.1480    -3.0001   -65.9790   250.0000   300.0000    81.1086    26.6844     3.0010     1.0017    14.0000    10.0000    17.0000    10.0000    19.0000    20.0000     8.0000    12.0000    -0.0005     0.0005   159.4167   -41.1662     2.7873    49.7001   250.0570     0.000
     22     1.4000    -0.0000     1.3999    34.5003    14.7000     46.100     11.000 150721.000     60.000    36.5121   -20.0773   -22.1587   120.0962    -0.1480    -3.0001   -65.6125   250.0000   300.0000    80.5394    27.2853     3.0010     1.0017    14.0000    10.0000    17.0000    10.0000    19.0000    20.0000     8.0000    12.0000    -0.0005     0.0005   159.4167   -41.1662     2.7873    49.2003   249.8900     0.000
     23     1.4000    -0.0000     1.3999    33.9990    14.7000     45.056      4.000 150721.000     60.000    36.6990   -20.0773   -22.2739   120.0962    -0.1480    -3.0001   -65.2446   250.0000   300.0000    79.9795    27.8788     3.0010     1.0017    14.0000    10.0000    17.0000    10.0000    19.0000    20.0000     8.0000    12.0000    -0.0005     0.0005   159.4167   -41.1662     2.7873    48.6991   249.8830     0.000
     24     1.4000    -0.0000     1.4000    33.5006    14.7000     44.865     10.000 150721.000     60.000    36.8889   -20.0773   -22.3902   120.0962    -0.1480    -3.0001   -64.8752   250.0000   300.0000    79.4274    28.4645     3.0010     1.0017    14.0000    10.0000    17.0000    10.0000    19.0000    20.0000     8.0000    12.0000    -0.0005     0.0005   159.4167   -41.1662     2.7874    48.2006   250.0430     0.000
     25     1.4000    -0.0000     1.4000    33.0003    14.7000     44.443      4.000 150721.000     60.000    37.0817   -20.0773   -22.5089   120.0962    -0.1480    -3.0001   -64.5042   250.0000   300.0000    78.8830    29.0416     3.0010     1.0017    14.0000    10.0000    17.0000    10.0000    19.0000    20.0000     8.0000    12.0000    -0.0005     0.0005   159.4167   -41.1662     2.7873    47.7003   250.0480     0.000
     26     1.4000    -0.0000     1.4000    32.5000    14.7000     43.995      6.000 150721.000     60.000    37.2776   -20.0773   -22.6294   120.0962    -0.1480    -3.0001   -64.1317   250.0000   300.0000    78.3454    29.6133     3.0010     1.0017    14.0000    10.0000    17.0000    10.0000    19.0000    20.0000     8.0000    12.0000    -0.0005     0.0005   159.4167   -41.1662     2.7874    47.2000   250.0540     0.000
     27     1.4000    -0.0000     1.4001    31.9996    14.7000     44.106      9.000 150721.000     60.000    37.4766   -20.0773   -22.7519   120.0962    -0.1480    -3.0001   -63.7576   250.0000   300.0000    77.8151    30.1783     3.0010     1.0017    14.0000    10.0000    17.0000    10.0000    19.0000    20.0000     8.0000    12.0000    -0.0005     0.0005   159.4167   -41.1662     2.7875    46.6996   250.0730     0.000
     28     1.4001    -0.0000     1.4001    31.5005    14.7000     43.835     13.000 150721.000     60.000    37.6789   -20.0773   -22.8762   120.0962    -0.1480    -3.0001   -63.3819   250.0000   300.0000    77.2905    30.7342     3.0010     1.0017    14.0000    10.0000    17.0000    10.0000    19.0000    20.0000     8.0000    12.0000    -0.0005     0.0005   159.4167   -41.1662     2.7874    46.2005   250.0470     0.000
     29     1.4000    -0.0000     1.4000    30.9988    14.7000     43.288     12.000 150721.000     60.000    37.8844   -20.0773   -23.0031   120.0962    -0.1480    -3.0001   -63.0045   250.0000   300.0000    76.7719    31.2834     3.0010     1.0017    14.0000    10.0000    17.0000    10.0000    19.0000    20.0000     8.0000    12.0000    -0.0005     0.0005   159.4167   -41.1662     2.7873    45.6988   250.0360     0.000
     30     1.4000    -0.0000     1.4000    30.5001    14.7000     42.787      7.000 150721.000     60.000    38.0934   -20.0773   -23.1314   120.0962    -0.1480    -3.0001   -62.6255   250.0000   300.0000    76.2588    31.8302     3.0010     1.0017    14.0000    10.0000    17.0000    10.0000    19.0000    20.0000     8.0000    12.0000    -0.0005     0.0005   159.4167   -41.1662     2.7874    45.2001   250.0470     0.000
     31     1.4000    -0.0000     1.4000    30.0002    14.7000     42.365     16.000 150721.000     60.000    38.3059   -20.0773   -23.2622   120.0962    -0.1480    -3.0001   -62.2448   250.0000   300.0000    75.7505    32.3714     3.0010     1.0017    14.0000    10.0000    17.0000    10.0000    19.0000    20.0000     8.0000    12.0000    -0.0005     0.0005   159.4167   -41.1662     2.7874    44.7002   249.9300     0.000
     32     1.4000    -0.0000     1.4000    29.4998    14.7000     42.395      9.000 150721.000     60.000    38.5219   -20.0773   -23.3953   120.0962    -0.1480    -3.0001   -61.8623   250.0000   300.0000    75.2476    32.9062     3.0010     1.0017    14.0000    10.0000    17.0000    10.0000    19.0000    20.0000     8.0000    12.0000    -0.0005     0.0005   159.4167   -41.1662     2.7874    44.1999   249.8680     0.000
     33     1.4000    -0.0000     1.4000    29.0003    14.7000     41.862     13.000 150721.000     60.000    38.7417   -20.0773   -23.5305   120.0962    -0.1480    -3.0001   -61.4781   250.0000   300.0000    74.7490    33.4377     3.0010     1.0017    14.0000    10.0000    17.0000    10.0000    19.0000    20.0000     8.0000    12.0000    -0.0005     0.0005   159.4167   -41.1662     2.7874    43.7003   249.8950     0.000
     34     1.4000    -0.0000     1.4000    28.5002    14.7000     41.612     11.000 150721.000     60.000    38.9652   -20.0773   -23.6683   120.0962    -0.1480    -3.0001   -61.0922   250.0000   300.0000    74.2548    33.9649     3.0010     1.0017    14.0000    10.0000    17.0000    10.0000    19.0000    20.0000     8.0000    12.0000    -0.0005     0.0005   159.4167   -41.1662     2.7874    43.2002   249.9280     0.000
     35     1.4000    -0.0000     1.4000    28.0001    14.7000     41.729     14.000 150721.000     60.000    39.1927   -20.0773   -23.8085   120.0962    -0.1480    -3.0001   -60.7044   250.0000   300.0000    73.7643    34.4873     3.0010     1.0017    14.0000    10.0000    17.0000    10.0000    19.0000    20.0000     8.0000    12.0000    -0.0005     0.0005   159.4167   -41.1662     2.7873    42.7001   249.8690     0.000
     36     1.4000    -0.0000     1.4000    27.5001    14.7000     41.181      6.000 150721.000     60.000    39.4242   -20.0773   -23.9512   120.0962    -0.1480    -3.0001   -60.3147   250.0000   300.0000    73.2780    35.0082     3.0010     1.0017    14.0000    10.0000    17.0000    10.0000    19.0000    20.0000     8.0000    12.0000    -0.0005     0.0005   159.4167   -41.1662     2.7874    42.2001   249.9380     0.000
     37     1.4000    -0.0000     1.4000    27.0005    14.7000     40.354     12.000 150721.000     60.000    39.6598   -20.0773   -24.0964   120.0962    -0.1480    -3.0001   -59.9232   250.0000   300.0000    72.7950    35.5241     3.0010     1.0017    14.0000    10.0000    17.0000    10.0000    19.0000    20.0000     8.0000    12.0000    -0.0005     0.0005   159.4167   -41.1662     2.7874    41.7005   249.8980     0.000
     38     1.4000    -0.0000     1.4000    26.5003    14.7000     39.566     11.000 150721.000     60.000    39.8998   -20.0773   -24.2445   120.0962    -0.1480    -3.0001   -59.5297   250.0000   300.0000    72.3155    36.0353     3.0010     1.0017    14.0000    10.0000    17.0000    10.0000    19.0000    20.0000     8.0000    12.0000    -0.0005     0.0005   159.4167   -41.1662     2.7873    41.2003   250.0710     0.000
     39     1.4000    -0.0000     1.4000    26.0000    14.7000     38.809     11.000 150721.000     60.000    40.1441   -20.0773   -24.3953   120.0962    -0.1480    -3.0001   -59.1343   250.0000   300.0000    71.8394    36.5472     3.0010     1.0017    14.0000    10.0000    17.0000    10.0000    19.0000    20.0000     8.0000    12.0000    -0.0005     0.0005   159.4167   -41.1662     2.7874    40.7001   250.0730     0.000
     40     1.4000    -0.0000     1.4000    25.5004    14.7000     38.092     13.000 150721.000     60.000    40.3930   -20.0773   -24.5488   120.0962    -0.1480    -3.0001   -58.7370   250.0000   300.0000    71.3656    37.0540     3.0010     1.0017    14.0000    10.0000    17.0000    10.0000    19.0000    20.0000     8.0000    12.0000    -0.0005     0.0005   159.4167   -41.1662     2.7874    40.2004   250.0740     0.000
     41     1.4000    -0.0000     1.4000    25.0004    14.7000     37.708     11.000 150721.000     60.000    40.6465   -20.0773   -24.7053   120.0962    -0.1480    -3.0001   -58.3375   250.0000   300.0000    70.8955    37.5596     3.0010     1.0017    14.0000    10.0000    17.0000    10.0000    19.0000    20.0000     8.0000    12.0000    -0.0005     0.0005   159.4167   -41.1662     2.7874    39.7004   250.0080     0.000
     42     1.4000    -0.0000     1.3999    24.5000    14.7000     37.551      7.000 150721.000     60.000    40.9049   -20.0773   -24.8650   120.0962    -0.1480    -3.0001   -57.9360   250.0000   300.0000    70.4274    38.0594     3.0010     1.0017    14.0000    10.0000    17.0000    10.0000    19.0000    20.0000     8.0000    12.0000    -0.0005     0.0005   159.4167   -41.1662     2.7873    39.2000   250.0680     0.000
     43     1.4000    -0.0000     1.4000    24.0001    14.7000     37.946      9.000 150721.000     60.000    41.1683   -20.0773   -25.0276   120.0962    -0.1480    -3.0001   -57.5324   250.0000   300.0000    69.9619    38.5619     3.0010     1.0017    14.0000    10.0000    17.0000    10.0000    19.0000    20.0000     8.0000    12.0000    -0.0005     0.0005   159.4167   -41.1662     2.7874    38.7001   250.0240     0.000
