# scan = 62
# date = 9/22/2024
# time = 4:23:31 PM
# proposal = 34735
# experiment = Magnons and paramagnon coupling in MnTe
# experiment_number = 816
# command = scan h 1.475 k 0.0 l 1.475 e 45 1 0.5 ef 14.7 preset mcu 60
# builtin_command = scan h 1.475 k 0.0 l 1.475 e 45 1 0.5 ef 14.7 preset mcu 60
# users = Benjamin Frandsen, Songxue Chi, George Yumnam, Huibo Cao, Michael Manley, Raphael Hermann, Eleanor Clements
# local_contact = Eleanor Clements
# scan_title = H0L scans along (101) to (1.5, 0, 1.5) at H/L = 1.475, mcu = 60, E = 45 to 0.5 mev
# monochromator = PG002
# analyzer = Pg002
# sense = -+-
# collimation = 48-40-40-120
# samplename = MnTe
# sampletype = crystal
# samplemosaic = 30.000000
# latticeconstants = 4.134597,4.134597,6.679746,90.000000,90.000000,120.000000
# ubmatrix = -0.273127,-0.149222,-0.030247,-0.056745,-0.024153,0.146560,-0.013326,0.234830,-0.004146
# mode = 0
# plane_normal = -0.052339,0.017444,0.998477
# ubconf = UB21Sep2024_13243PM.ini
# preset_type = normal 
# preset_channel = mcu
# preset_value = 60.000000
# def_x = e
# def_y = detector
# col_headers = 
#   Pt.          h          k          l          e         ef       time   detector    monitor        mcu focal_length         m1         m2   mcrystal       marc     mtrans     mfocus       temp     temp_2         s1         s2        sgl        sgu        bbb        bbl        bbr        bbt        bab        bal        bar        bat        stl        stu         a1         a2          q         ei        vti     sample
      1     1.4751    -0.0000     1.4748    45.0050    14.7000     50.294     10.000 150721.000     60.000    33.1461   -20.0773   -20.0928   120.0962    -0.1480    -3.0001   -73.0266   250.0000   300.0000    90.7631    17.4174     3.0010     1.0017    14.0000    10.0000    17.0000    10.0000    19.0000    20.0000     8.0000    12.0000    -0.0005     0.0005   159.4167   -41.1662     2.9367    59.7050   250.0030     0.000
      2     1.4750    -0.0000     1.4750    44.5002    14.7000     49.833     13.000 150721.000     60.000    33.2857   -20.0773   -20.1792   120.0962    -0.1480    -3.0001   -72.6858   250.0000   300.0000    90.0140    18.2554     3.0010     1.0017    14.0000    10.0000    17.0000    10.0000    19.0000    20.0000     8.0000    12.0000    -0.0005     0.0005   159.4167   -41.1662     2.9367    59.2002   249.9980     0.000
      3     1.4750    -0.0000     1.4750    44.0002    14.7000     49.618     18.000 150721.000     60.000    33.4272   -20.0773   -20.2658   120.0962    -0.1480    -3.0001   -72.3439   250.0000   300.0000    89.2944    19.0588     3.0010     1.0017    14.0000    10.0000    17.0000    10.0000    19.0000    20.0000     8.0000    12.0000    -0.0005     0.0005   159.4167   -41.1662     2.9367    58.7002   249.9090     0.000
      4     1.4750    -0.0000     1.4750    43.4992    14.7000     49.270     76.000 150721.000     60.000    33.5705   -20.0773   -20.3538   120.0962    -0.1480    -3.0001   -72.0008   250.0000   300.0000    88.6001    19.8310     3.0010     1.0017    14.0000    10.0000    17.0000    10.0000    19.0000    20.0000     8.0000    12.0000    -0.0005     0.0005   159.4167   -41.1662     2.9366    58.1992   250.0730     0.000
      5     1.4750    -0.0000     1.4751    43.0002    14.7000     49.240     54.000 150721.000     60.000    33.7156   -20.0773   -20.4425   120.0962    -0.1480    -3.0001   -71.6566   250.0000   300.0000    87.9289    20.5828     3.0010     1.0017    14.0000    10.0000    17.0000    10.0000    19.0000    20.0000     8.0000    12.0000    -0.0005     0.0005   159.4167   -41.1662     2.9367    57.7003   250.0090     0.000
      6     1.4750    -0.0000     1.4750    42.4992    14.7000     49.555     12.000 150721.000     60.000    33.8626   -20.0773   -20.5329   120.0962    -0.1480    -3.0001   -71.3112   250.0000   300.0000    87.2769    21.3090     3.0010     1.0017    14.0000    10.0000    17.0000    10.0000    19.0000    20.0000     8.0000    12.0000    -0.0005     0.0005   159.4167   -41.1662     2.9367    57.1992   249.8500     0.000
      7     1.4750    -0.0000     1.4750    42.0003    14.7000     49.542     12.000 150721.000     60.000    34.0116   -20.0773   -20.6240   120.0962    -0.1480    -3.0001   -70.9646   250.0000   300.0000    86.6442    22.0168     3.0010     1.0017    14.0000    10.0000    17.0000    10.0000    19.0000    20.0000     8.0000    12.0000    -0.0005     0.0005   159.4167   -41.1662     2.9367    56.7003   250.0840     0.000
      8     1.4750    -0.0000     1.4750    41.5001    14.7000     50.177     12.000 150721.000     60.000    34.1626   -20.0773   -20.7166   120.0962    -0.1480    -3.0001   -70.6168   250.0000   300.0000    86.0270    22.7066     3.0010     1.0017    14.0000    10.0000    17.0000    10.0000    19.0000    20.0000     8.0000    12.0000    -0.0005     0.0005   159.4167   -41.1662     2.9367    56.2001   250.0800     0.000
      9     1.4750    -0.0000     1.4751    41.0006    14.7000     50.706     21.000 150721.000     60.000    34.3156   -20.0773   -20.8103   120.0962    -0.1480    -3.0001   -70.2678   250.0000   300.0000    85.4254    23.3820     3.0010     1.0017    14.0000    10.0000    17.0000    10.0000    19.0000    20.0000     8.0000    12.0000    -0.0005     0.0005   159.4167   -41.1662     2.9367    55.7007   249.8440     0.000
     10     1.4750    -0.0000     1.4750    40.4988    14.7000     51.087      7.000 150721.000     60.000    34.4706   -20.0773   -20.9057   120.0962    -0.1480    -3.0001   -69.9176   250.0000   300.0000    84.8374    24.0403     3.0010     1.0017    14.0000    10.0000    17.0000    10.0000    19.0000    20.0000     8.0000    12.0000    -0.0005     0.0005   159.4167   -41.1662     2.9366    55.1988   250.0340     0.000
     11     1.4750    -0.0000     1.4750    39.9998    14.7000     51.466     10.000 150721.000     60.000    34.6278   -20.0773   -21.0019   120.0962    -0.1480    -3.0001   -69.5662   250.0000   300.0000    84.2614    24.6867     3.0010     1.0017    14.0000    10.0000    17.0000    10.0000    19.0000    20.0000     8.0000    12.0000    -0.0005     0.0005   159.4167   -41.1662     2.9367    54.6998   250.0910     0.000
     12     1.4750    -0.0000     1.4750    39.5004    14.7000     51.764     10.000 150721.000     60.000    34.7872   -20.0773   -21.0996   120.0962    -0.1480    -3.0001   -69.2134   250.0000   300.0000    83.6975    25.3210     3.0010     1.0017    14.0000    10.0000    17.0000    10.0000    19.0000    20.0000     8.0000    12.0000    -0.0005     0.0005   159.4167   -41.1662     2.9367    54.2004   250.0580     0.000
     13     1.4750    -0.0000     1.4750    38.9994    14.7000     51.962      8.000 150721.000     60.000    34.9487   -20.0773   -21.1989   120.0962    -0.1480    -3.0001   -68.8594   250.0000   300.0000    83.1441    25.9436     3.0010     1.0017    14.0000    10.0000    17.0000    10.0000    19.0000    20.0000     8.0000    12.0000    -0.0005     0.0005   159.4167   -41.1662     2.9367    53.6994   250.0660     0.000
     14     1.4750    -0.0000     1.4750    38.5006    14.7000     52.138      7.000 150721.000     60.000    35.1126   -20.0773   -21.2992   120.0962    -0.1480    -3.0001   -68.5041   250.0000   300.0000    82.6005    26.5550     3.0010     1.0017    14.0000    10.0000    17.0000    10.0000    19.0000    20.0000     8.0000    12.0000    -0.0005     0.0005   159.4167   -41.1662     2.9367    53.2007   249.9830     0.000
     15     1.4751    -0.0000     1.4751    38.0001    14.7000     51.964      7.000 150721.000     60.000    35.2788   -20.0773   -21.4013   120.0962    -0.1480    -3.0001   -68.1475   250.0000   300.0000    82.0664    27.1599     3.0010     1.0017    14.0000    10.0000    17.0000    10.0000    19.0000    20.0000     8.0000    12.0000    -0.0005     0.0005   159.4167   -41.1662     2.9368    52.7001   250.0700     0.000
     16     1.4750    -0.0000     1.4750    37.4995    14.7000     51.869      9.000 150721.000     60.000    35.4473   -20.0773   -21.5049   120.0962    -0.1480    -3.0001   -67.7895   250.0000   300.0000    81.5408    27.7509     3.0010     1.0017    14.0000    10.0000    17.0000    10.0000    19.0000    20.0000     8.0000    12.0000    -0.0005     0.0005   159.4167   -41.1662     2.9367    52.1995   249.9470     0.000
     17     1.4751    -0.0000     1.4751    37.0014    14.7000     51.500      7.000 150721.000     60.000    35.6183   -20.0773   -21.6094   120.0962    -0.1480    -3.0001   -67.4302   250.0000   300.0000    81.0234    28.3359     3.0010     1.0017    14.0000    10.0000    17.0000    10.0000    19.0000    20.0000     8.0000    12.0000    -0.0005     0.0005   159.4167   -41.1662     2.9368    51.7015   250.0310     0.000
     18     1.4750    -0.0000     1.4750    36.4988    14.7000     50.365      6.000 150721.000     60.000    35.7918   -20.0773   -21.7165   120.0962    -0.1480    -3.0001   -67.0695   250.0000   300.0000    80.5130    28.9131     3.0010     1.0017    14.0000    10.0000    17.0000    10.0000    19.0000    20.0000     8.0000    12.0000    -0.0005     0.0005   159.4167   -41.1662     2.9367    51.1988   249.9230     0.000
     19     1.4750    -0.0000     1.4750    36.0003    14.7000     49.227     10.000 150721.000     60.000    35.9679   -20.0773   -21.8244   120.0962    -0.1480    -3.0001   -66.7074   250.0000   300.0000    80.0097    29.4822     3.0010     1.0017    14.0000    10.0000    17.0000    10.0000    19.0000    20.0000     8.0000    12.0000    -0.0005     0.0005   159.4167   -41.1662     2.9367    50.7003   250.0550     0.000
     20     1.4750    -0.0000     1.4750    35.5002    14.7000     48.380     12.000 150721.000     60.000    36.1466   -20.0773   -21.9341   120.0962    -0.1480    -3.0001   -66.3439   250.0000   300.0000    79.5135    30.0444     3.0010     1.0017    14.0000    10.0000    17.0000    10.0000    19.0000    20.0000     8.0000    12.0000    -0.0005     0.0005   159.4167   -41.1662     2.9367    50.2003   250.0000     0.000
     21     1.4750    -0.0000     1.4750    35.0003    14.7000     47.319      7.000 150721.000     60.000    36.3279   -20.0773   -22.0455   120.0962    -0.1480    -3.0001   -65.9790   250.0000   300.0000    79.0230    30.6027     3.0010     1.0017    14.0000    10.0000    17.0000    10.0000    19.0000    20.0000     8.0000    12.0000    -0.0005     0.0005   159.4167   -41.1662     2.9367    49.7004   249.8670     0.000
     22     1.4750    -0.0000     1.4751    34.5003    14.7000     46.183     14.000 150721.000     60.000    36.5121   -20.0773   -22.1587   120.0962    -0.1480    -3.0001   -65.6125   250.0000   300.0000    78.5388    31.1540     3.0010     1.0017    14.0000    10.0000    17.0000    10.0000    19.0000    20.0000     8.0000    12.0000    -0.0005     0.0005   159.4167   -41.1662     2.9367    49.2003   250.0600     0.000
     23     1.4750    -0.0000     1.4750    33.9988    14.7000     45.171     11.000 150721.000     60.000    36.6990   -20.0773   -22.2739   120.0962    -0.1480    -3.0001   -65.2446   250.0000   300.0000    78.0596    31.6977     3.0010     1.0017    14.0000    10.0000    17.0000    10.0000    19.0000    20.0000     8.0000    12.0000    -0.0005     0.0005   159.4167   -41.1662     2.9366    48.6988   250.0200     0.000
     24     1.4750    -0.0000     1.4750    33.5008    14.7000     44.713      9.000 150721.000     60.000    36.8889   -20.0773   -22.3902   120.0962    -0.1480    -3.0001   -64.8752   250.0000   300.0000    77.5858    32.2379     3.0010     1.0017    14.0000    10.0000    17.0000    10.0000    19.0000    20.0000     8.0000    12.0000    -0.0005     0.0005   159.4167   -41.1662     2.9367    48.2008   249.9950     0.000
     25     1.4750    -0.0000     1.4751    33.0001    14.7000     44.622     11.000 150721.000     60.000    37.0817   -20.0773   -22.5089   120.0962    -0.1480    -3.0001   -64.5042   250.0000   300.0000    77.1175    32.7745     3.0010     1.0017    14.0000    10.0000    17.0000    10.0000    19.0000    20.0000     8.0000    12.0000    -0.0005     0.0005   159.4167   -41.1662     2.9367    47.7001   250.0320     0.000
     26     1.4750    -0.0000     1.4750    32.5000    14.7000     44.267     10.000 150721.000     60.000    37.2776   -20.0773   -22.6294   120.0962    -0.1480    -3.0001   -64.1317   250.0000   300.0000    76.6532    33.3046     3.0010     1.0017    14.0000    10.0000    17.0000    10.0000    19.0000    20.0000     8.0000    12.0000    -0.0005     0.0005   159.4167   -41.1662     2.9367    47.2000   250.0590     0.000
     27     1.4750    -0.0000     1.4750    31.9994    14.7000     44.033      5.000 150721.000     60.000    37.4766   -20.0773   -22.7520   120.0962    -0.1480    -3.0001   -63.7576   250.0000   300.0000    76.1933    33.8290     3.0010     1.0017    14.0000    10.0000    17.0000    10.0000    19.0000    20.0000     8.0000    12.0000    -0.0005     0.0005   159.4167   -41.1662     2.9366    46.6994   249.9340     0.000
     28     1.4751    -0.0000     1.4750    31.5005    14.7000     43.817      5.000 150721.000     60.000    37.6789   -20.0773   -22.8762   120.0962    -0.1480    -3.0001   -63.3819   250.0000   300.0000    75.7375    34.3537     3.0010     1.0017    14.0000    10.0000    17.0000    10.0000    19.0000    20.0000     8.0000    12.0000    -0.0005     0.0005   159.4167   -41.1662     2.9367    46.2005   249.9100     0.000
     29     1.4750    -0.0000     1.4750    30.9990    14.7000     43.159      8.000 150721.000     60.000    37.8844   -20.0773   -23.0030   120.0962    -0.1480    -3.0001   -63.0045   250.0000   300.0000    75.2858    34.8710     3.0010     1.0017    14.0000    10.0000    17.0000    10.0000    19.0000    20.0000     8.0000    12.0000    -0.0005     0.0005   159.4167   -41.1662     2.9366    45.6990   249.8430     0.000
     30     1.4751    -0.0000     1.4751    30.5003    14.7000     42.949      8.000 150721.000     60.000    38.0934   -20.0773   -23.1313   120.0962    -0.1480    -3.0001   -62.6255   250.0000   300.0000    74.8384    35.3891     3.0010     1.0017    14.0000    10.0000    17.0000    10.0000    19.0000    20.0000     8.0000    12.0000    -0.0005     0.0005   159.4167   -41.1662     2.9368    45.2003   249.9700     0.000
     31     1.4750    -0.0000     1.4750    30.0002    14.7000     42.663     13.000 150721.000     60.000    38.3059   -20.0773   -23.2622   120.0962    -0.1480    -3.0001   -62.2448   250.0000   300.0000    74.3936    35.8979     3.0010     1.0017    14.0000    10.0000    17.0000    10.0000    19.0000    20.0000     8.0000    12.0000    -0.0005     0.0005   159.4167   -41.1662     2.9367    44.7002   250.0860     0.000
     32     1.4750    -0.0000     1.4751    29.5000    14.7000     42.147     11.000 150721.000     60.000    38.5219   -20.0773   -23.3953   120.0962    -0.1480    -3.0001   -61.8623   250.0000   300.0000    73.9525    36.4086     3.0010     1.0017    14.0000    10.0000    17.0000    10.0000    19.0000    20.0000     8.0000    12.0000    -0.0005     0.0005   159.4167   -41.1662     2.9368    44.2000   250.0810     0.000
     33     1.4750    -0.0000     1.4750    29.0003    14.7000     41.953     15.000 150721.000     60.000    38.7417   -20.0773   -23.5305   120.0962    -0.1480    -3.0001   -61.4781   250.0000   300.0000    73.5148    36.9131     3.0010     1.0017    14.0000    10.0000    17.0000    10.0000    19.0000    20.0000     8.0000    12.0000    -0.0005     0.0005   159.4167   -41.1662     2.9367    43.7003   250.0460     0.000
     34     1.4750    -0.0000     1.4750    28.5004    14.7000     41.922     11.000 150721.000     60.000    38.9652   -20.0773   -23.6683   120.0962    -0.1480    -3.0001   -61.0922   250.0000   300.0000    73.0796    37.4170     3.0010     1.0017    14.0000    10.0000    17.0000    10.0000    19.0000    20.0000     8.0000    12.0000    -0.0005     0.0005   159.4167   -41.1662     2.9367    43.2004   250.0960     0.000
     35     1.4750    -0.0000     1.4750    27.9999    14.7000     41.768     13.000 150721.000     60.000    39.1927   -20.0773   -23.8086   120.0962    -0.1480    -3.0001   -60.7044   250.0000   300.0000    72.6479    37.9176     3.0010     1.0017    14.0000    10.0000    17.0000    10.0000    19.0000    20.0000     8.0000    12.0000    -0.0005     0.0005   159.4167   -41.1662     2.9367    42.6999   250.0830     0.000
     36     1.4751    -0.0000     1.4750    27.5004    14.7000     41.241      9.000 150721.000     60.000    39.4242   -20.0773   -23.9511   120.0962    -0.1480    -3.0001   -60.3147   250.0000   300.0000    72.2184    38.4170     3.0010     1.0017    14.0000    10.0000    17.0000    10.0000    19.0000    20.0000     8.0000    12.0000    -0.0005     0.0005   159.4167   -41.1662     2.9368    42.2004   250.0420     0.000
     37     1.4750    -0.0000     1.4750    27.0006    14.7000     40.472      9.000 150721.000     60.000    39.6598   -20.0773   -24.0964   120.0962    -0.1480    -3.0001   -59.9232   250.0000   300.0000    71.7916    38.9127     3.0010     1.0017    14.0000    10.0000    17.0000    10.0000    19.0000    20.0000     8.0000    12.0000    -0.0005     0.0005   159.4167   -41.1662     2.9367    41.7007   250.0950     0.000
     38     1.4751    -0.0000     1.4751    26.4999    14.7000     39.828      9.000 150721.000     60.000    39.8998   -20.0773   -24.2446   120.0962    -0.1480    -3.0001   -59.5297   250.0000   300.0000    71.3674    39.4096     3.0010     1.0017    14.0000    10.0000    17.0000    10.0000    19.0000    20.0000     8.0000    12.0000    -0.0005     0.0005   159.4167   -41.1662     2.9368    41.2000   250.0770     0.000
     39     1.4750    -0.0000     1.4750    25.9997    14.7000     38.925      4.000 150721.000     60.000    40.1441   -20.0773   -24.3954   120.0962    -0.1480    -3.0001   -59.1343   250.0000   300.0000    70.9454    39.8995     3.0010     1.0017    14.0000    10.0000    17.0000    10.0000    19.0000    20.0000     8.0000    12.0000    -0.0005     0.0005   159.4167   -41.1662     2.9367    40.6997   250.1070     0.000
     40     1.4751    -0.0000     1.4751    25.5004    14.7000     38.303     10.000 150721.000     60.000    40.3930   -20.0773   -24.5488   120.0962    -0.1480    -3.0001   -58.7370   250.0000   300.0000    70.5254    40.3930     3.0010     1.0017    14.0000    10.0000    17.0000    10.0000    19.0000    20.0000     8.0000    12.0000    -0.0005     0.0005   159.4167   -41.1662     2.9368    40.2004   249.8560     0.000
     41     1.4750    -0.0000     1.4750    25.0001    14.7000     37.844     10.000 150721.000     60.000    40.6465   -20.0773   -24.7054   120.0962    -0.1480    -3.0001   -58.3375   250.0000   300.0000    70.1079    40.8796     3.0010     1.0017    14.0000    10.0000    17.0000    10.0000    19.0000    20.0000     8.0000    12.0000    -0.0005     0.0005   159.4167   -41.1662     2.9366    39.7001   249.9050     0.000
     42     1.4750    -0.0000     1.4750    24.5001    14.7000     37.755      7.000 150721.000     60.000    40.9049   -20.0773   -24.8649   120.0962    -0.1480    -3.0001   -57.9360   250.0000   300.0000    69.6916    41.3704     3.0010     1.0017    14.0000    10.0000    17.0000    10.0000    19.0000    20.0000     8.0000    12.0000    -0.0005     0.0005   159.4167   -41.1662     2.9367    39.2001   250.0970     0.000
     43     1.4750    -0.0000     1.4750    24.0001    14.7000     38.106      5.000 150721.000     60.000    41.1683   -20.0773   -25.0276   120.0962    -0.1480    -3.0001   -57.5324   250.0000   300.0000    69.2779    41.8554     3.0010     1.0017    14.0000    10.0000    17.0000    10.0000    19.0000    20.0000     8.0000    12.0000    -0.0005     0.0005   159.4167   -41.1662     2.9366    38.7001   250.0300     0.000
