'lscu1066.ng5' 'Sep 24 2005 14:02' 'Q'     700000.    2  'NEUT'   31  'RAW'
  Filename         Date            Scan       Mon    Prf  Base   #pts  Type
lscu1 7% gu 9.7g g-op-be-op-pg5bl-op-d            
   0   0   0   0       0  0  0         1  0  0   0.000     0  1  0
 Collimation        Mosaic              Xstal Orientation
     5.388     5.325    12.515    90.000    90.000    90.000
Lattice Parameters in real space
     3.500     0.000        5.000        3.354   3.354      0.00000   0.00000
    E center  Delta E      EA fixed      M-dsp   A-dsp     Tmp strt   Tmp inc
  1.000   0.000   0.000    0.0200 -0.0200  0.0000      0.0000
   Q (hkl scan center)        Delta Q (hkl)            Hfield
    Q(x)    Q(y)    Q(z)     E       T-act    min       Counts
  0.7000  0.3000  0.0000   3.5000 29.59200    2.30           6
  0.7200  0.2800  0.0000   3.5000 29.60100    2.30           6
  0.7400  0.2600  0.0000   3.5000 29.61200    2.33           5
  0.7600  0.2400  0.0000   3.5000 29.60200    2.30          11
  0.7800  0.2200  0.0000   3.5000 29.59300    2.32          10
  0.8000  0.2000  0.0000   3.5000 29.59600    2.32          10
  0.8200  0.1800  0.0000   3.5000 29.59800    2.33           9
  0.8400  0.1600  0.0000   3.5000 29.60100    2.32          10
  0.8600  0.1400  0.0000   3.5000 29.60400    2.30           9
  0.8800  0.1200  0.0000   3.5000 29.60300    2.32           7
  0.9000  0.1000  0.0000   3.5000 29.60100    2.32          14
  0.9200  0.0800  0.0000   3.5000 29.60400    2.30          20
  0.9400  0.0600  0.0000   3.5000 29.59100    2.33          21
  0.9600  0.0400  0.0000   3.5000 29.57500    2.32          24
  0.9800  0.0200  0.0000   3.5000 29.57700    2.32          21
  1.0000  0.0000  0.0000   3.5000 29.58900    2.33          22
  1.0200 -0.0200  0.0000   3.5000 29.59200    2.32          15
  1.0400 -0.0400  0.0000   3.5000 29.58000    2.33          15
  1.0600 -0.0600  0.0000   3.5000 29.57100    2.32          20
  1.0800 -0.0800  0.0000   3.5000 29.57300    2.33          35
  1.1000 -0.1000  0.0000   3.5000 29.58300    2.33          21
  1.1200 -0.1200  0.0000   3.5000 29.58500    2.32          10
  1.1400 -0.1400  0.0000   3.5000 29.57800    2.30          11
  1.1600 -0.1600  0.0000   3.5000 29.57700    2.33           3
  1.1800 -0.1800  0.0000   3.5000 29.57400    2.33           6
  1.2000 -0.2000  0.0000   3.5000 29.56900    2.33           5
  1.2200 -0.2200  0.0000   3.5000 29.57500    2.32           8
  1.2400 -0.2400  0.0000   3.5000 29.58100    2.33           3
  1.2600 -0.2600  0.0000   3.5000 29.57700    2.33           4
  1.2800 -0.2800  0.0000   3.5000 29.57000    2.33           6
  1.3000 -0.3000  0.0000   3.5000 29.56200    2.30           4
