# scan = 150
# date = 3/1/2025
# time = 6:30:00 PM
# proposal = 34247
# experiment = Investigating the Transverse Field Ising Ferromagnet HoV6Sn6: A Rare Example of a Ferromagnetic Metal with a Quantum Critical Point?
# experiment_number = 1047
# command = scan mag_i 0.1 0.2 0.1
# builtin_command = scan mag_i 0.1 0.2 0.1
# users = Aashish Sapkota, Benjamin Ueland, Dhurba Jaishi, Fei Li, Rob McQueeney, Tianxiong Han, Bing Li
# local_contact = A. Aczel
# scan_title = measure rocking (2 0 0), H = 0 T, T = 0.3 K
# monochromator = PG002
# analyzer = Pg002
# sense = +-+
# collimation = 40-40-40-80
# samplename = HoV6Sn6 crystal
# sampletype = crystal
# samplemosaic = 30.000000
# latticeconstants = 5.500888,5.500888,9.163669,90.000000,90.000000,120.000000
# ubmatrix = 0.113515,0.063136,0.091714,0.176568,0.085181,-0.058986,-0.000970,0.181165,-0.004228
# mode = 0
# plane_normal = 0.035087,-0.017067,0.999238
# ubconf = UB28Feb2025_100007PM.ini
# preset_type = normal 
# preset_channel = time
# preset_value = 1.000000
# def_x = mag_i
# def_y = detector
# col_headers = 
#   Pt.      mag_i       time   detector    monitor        mcu         m2         s1         s2        sgl        sgu   slitb_bt   slitb_lf   slitb_rt   slitb_tp   slita_bt   slita_lf   slita_rt   slita_tp        stl        stu         a1         a2          q          h          k          l         ei         ef          e        vti     sample       temp persistent_field dr_tsample    dr_temp
      1     0.1000      1.000    261.000  21305.000      1.104    41.5367   -87.0856   -59.8673    -2.0107    -0.9782    25.0000     6.0000     6.0000    25.0000    25.0000     9.0000     7.0000    22.0000    -3.9970     0.0020    20.7314    41.4622     2.6377     1.9999    -0.0000     0.0002    14.4503    14.4999    -0.0496     1.7057     0.0000     1.0000     0.1000     0.2998     0.300
      2     0.2002      1.000    248.000  21616.000      1.120    41.5367   -87.0856   -59.8673    -2.0107    -0.9782    25.0000     6.0000     6.0000    25.0000    25.0000     9.0000     7.0000    22.0000    -3.9970     0.0020    20.7314    41.4622     2.6377     1.9999    -0.0000     0.0002    14.4503    14.4999    -0.0496     1.7057     0.0000     1.0000     0.2002     0.2998     0.300
# Sum of Counts = 509
# Center of Mass = 0.148820+/-0.009589
# Full Width Half-Maximum = 0.100167+/-0.013916
# 6:30:50 PM  3/1/2025   scan completed.
