# scan = 23
# date = 2/28/2025
# time = 2:24:15 PM
# proposal = 34247
# experiment = Investigating the Transverse Field Ising Ferromagnet HoV6Sn6: A Rare Example of a Ferromagnetic Metal with a Quantum Critical Point?
# experiment_number = 1047
# command = scan slita_rt 0 20 1 preset time 1
# builtin_command = scan slita_rt 0 20 1 preset time 1
# users = Aashish Sapkota, Benjamin Ueland, Dhurba Jaishi, Fei Li, Rob McQueeney, Tianxiong Han, Bing Li
# local_contact = A. Aczel
# scan_title = optimize pre-sample and post-sample slits
# monochromator = PG002
# analyzer = Pg002
# sense = +-+
# collimation = 40-40-40-80
# samplename = HoV6Sn6 crystal
# sampletype = crystal
# samplemosaic = 30.000000
# latticeconstants = 5.458270,5.458270,9.088925,90.000000,90.000000,120.000000
# ubmatrix = 0.090317,0.052839,0.099386,0.191301,0.092769,-0.046942,-0.000778,0.182636,-0.004910
# mode = 0
# plane_normal = 0.041923,-0.015730,0.998990
# ubconf = UB28Feb2025_20212PM.ini
# preset_type = normal
# preset_channel = time
# preset_value = 1.000000
# def_x = slita_rt
# def_y = detector
# col_headers =
#   Pt.   slita_rt       time   detector    monitor        mcu         m2      mag_i         s1         s2        sgl        sgu   slitb_bt   slitb_lf   slitb_rt   slitb_tp   slita_bt   slita_lf   slita_tp        stl        stu         a1         a2          q          h          k          l         ei         ef          e        vti     sample       temp persistent_field dr_tsample    dr_temp
      1     0.0000      1.000     16.000  21215.000      1.099    41.5367    -0.0000  -113.6168   -97.8250    -2.4025    -0.9020    25.0000    20.0000    20.0000    25.0000    30.0000    20.0000    30.0000    -3.9965     0.0020    20.7319    41.4626     3.9841     2.9974     0.0000    -0.0044    14.4503    14.4997    -0.0494     1.7514     0.0000     1.0000    -0.0003     1.0801     0.000
      2     1.0000      1.000     25.000  21086.000      1.093    41.5367    -0.0000  -113.6168   -97.8250    -2.4025    -0.9020    25.0000    20.0000    20.0000    25.0000    30.0000    20.0000    30.0000    -3.9965     0.0020    20.7320    41.4626     3.9841     2.9974     0.0000    -0.0044    14.4503    14.4997    -0.0494     1.7514     0.0000     1.0000    -0.0003     1.0801     0.000
      3     2.0000      1.000     61.000  20938.000      1.085    41.5367    -0.0000  -113.6168   -97.8250    -2.4025    -0.9020    25.0000    20.0000    20.0000    25.0000    30.0000    20.0000    30.0000    -3.9965     0.0020    20.7319    41.4626     3.9841     2.9974     0.0000    -0.0044    14.4503    14.4997    -0.0494     1.7515     0.0000     1.0000    -0.0003     1.0801     0.000
      4     3.0000      1.000    134.000  21299.000      1.104    41.5367    -0.0000  -113.6168   -97.8250    -2.4025    -0.9020    25.0000    20.0000    20.0000    25.0000    30.0000    20.0000    30.0000    -3.9965     0.0020    20.7319    41.4626     3.9841     2.9974     0.0000    -0.0044    14.4503    14.4997    -0.0494     1.7520     0.0000     1.0000    -0.0003     1.0801     0.000
      5     4.0000      1.000    244.000  21247.000      1.101    41.5367     0.0000  -113.6168   -97.8250    -2.4025    -0.9020    25.0000    20.0000    20.0000    25.0000    30.0000    20.0000    30.0000    -3.9965     0.0020    20.7319    41.4626     3.9841     2.9974     0.0000    -0.0044    14.4503    14.4997    -0.0494     1.7522     0.0000     1.0000    -0.0003     1.0801     0.000
      6     5.0000      1.000    283.000  21310.000      1.104    41.5367     0.0001  -113.6168   -97.8250    -2.4025    -0.9020    25.0000    20.0000    20.0000    25.0000    30.0000    20.0000    30.0000    -3.9965     0.0020    20.7320    41.4626     3.9841     2.9974     0.0000    -0.0044    14.4503    14.4997    -0.0494     1.7524     0.0000     1.0000    -0.0003     0.9592     0.000
      7     6.0000      1.000    312.000  21192.000      1.098    41.5367    -0.0000  -113.6168   -97.8250    -2.4025    -0.9020    25.0000    20.0000    20.0000    25.0000    30.0000    20.0000    30.0000    -3.9965     0.0020    20.7320    41.4626     3.9841     2.9974     0.0000    -0.0044    14.4503    14.4997    -0.0494     1.7527     0.0000     1.0000    -0.0003     0.9592     0.000
      8     7.0000      1.000    302.000  20999.000      1.088    41.5367     0.0000  -113.6168   -97.8250    -2.4025    -0.9020    25.0000    20.0000    20.0000    25.0000    30.0000    20.0000    30.0000    -3.9965     0.0020    20.7319    41.4626     3.9841     2.9974     0.0000    -0.0044    14.4503    14.4997    -0.0494     1.7529     0.0000     1.0000    -0.0003     0.9592     0.000
      9     8.0000      1.000    294.000  21229.000      1.100    41.5367     0.0000  -113.6168   -97.8250    -2.4025    -0.9020    25.0000    20.0000    20.0000    25.0000    30.0000    20.0000    30.0000    -3.9965     0.0020    20.7320    41.4626     3.9841     2.9974     0.0000    -0.0044    14.4503    14.4997    -0.0494     1.7532     0.0000     1.0000    -0.0003     0.9592     0.000
     10     9.0000      1.000    293.000  21323.000      1.105    41.5367    -0.0000  -113.6168   -97.8250    -2.4025    -0.9020    25.0000    20.0000    20.0000    25.0000    30.0000    20.0000    30.0000    -3.9965     0.0020    20.7319    41.4626     3.9841     2.9974     0.0000    -0.0044    14.4503    14.4997    -0.0494     1.7535     0.0000     1.0000    -0.0003     0.9592     0.000
     11    10.0000      1.000    321.000  21151.000      1.096    41.5367    -0.0000  -113.6168   -97.8250    -2.4025    -0.9020    25.0000    20.0000    20.0000    25.0000    30.0000    20.0000    30.0000    -3.9965     0.0020    20.7320    41.4626     3.9841     2.9974     0.0000    -0.0044    14.4503    14.4997    -0.0494     1.7540     0.0000     1.0000    -0.0003     0.9592     0.000
     12    11.0000      1.000    332.000  21234.000      1.100    41.5367    -0.0000  -113.6168   -97.8250    -2.4025    -0.9020    25.0000    20.0000    20.0000    25.0000    30.0000    20.0000    30.0000    -3.9965     0.0020    20.7320    41.4626     3.9841     2.9974     0.0000    -0.0044    14.4503    14.4997    -0.0494     1.7544     0.0000     1.0000    -0.0003     0.9592     0.000
     13    12.0000      1.000    305.000  21274.000      1.102    41.5367     0.0000  -113.6168   -97.8250    -2.4025    -0.9020    25.0000    20.0000    20.0000    25.0000    30.0000    20.0000    30.0000    -3.9965     0.0020    20.7320    41.4626     3.9841     2.9974     0.0000    -0.0044    14.4503    14.4997    -0.0494     1.7548     0.0000     1.0000    -0.0003     0.9592     0.000
     14    13.0000      1.000    306.000  21258.000      1.101    41.5367     0.0001  -113.6168   -97.8250    -2.4025    -0.9020    25.0000    20.0000    20.0000    25.0000    30.0000    20.0000    30.0000    -3.9965     0.0020    20.7319    41.4626     3.9841     2.9974     0.0000    -0.0044    14.4503    14.4997    -0.0494     1.7553     0.0000     1.0000    -0.0003     0.9592     0.000
     15    14.0000      1.000    311.000  21062.000      1.091    41.5367    -0.0000  -113.6168   -97.8250    -2.4025    -0.9020    25.0000    20.0000    20.0000    25.0000    30.0000    20.0000    30.0000    -3.9965     0.0020    20.7320    41.4626     3.9841     2.9974     0.0000    -0.0044    14.4503    14.4997    -0.0494     1.7558     0.0000     1.0000    -0.0003     0.9592     0.000
     16    15.0000      1.000    337.000  21177.000      1.097    41.5367    -0.0000  -113.6168   -97.8250    -2.4025    -0.9020    25.0000    20.0000    20.0000    25.0000    30.0000    20.0000    30.0000    -3.9965     0.0020    20.7319    41.4626     3.9841     2.9974     0.0000    -0.0044    14.4503    14.4997    -0.0494     1.7563     0.0000     1.0000    -0.0003     0.9592     0.000
     17    16.0000      1.000    305.000  21220.000      1.099    41.5367    -0.0000  -113.6168   -97.8250    -2.4025    -0.9020    25.0000    20.0000    20.0000    25.0000    30.0000    20.0000    30.0000    -3.9965     0.0020    20.7320    41.4626     3.9841     2.9974     0.0000    -0.0044    14.4503    14.4997    -0.0494     1.7568     0.0000     1.0000    -0.0003     0.9592     0.000
     18    17.0000      1.000    338.000  21219.000      1.099    41.5367    -0.0000  -113.6168   -97.8250    -2.4025    -0.9020    25.0000    20.0000    20.0000    25.0000    30.0000    20.0000    30.0000    -3.9965     0.0020    20.7320    41.4626     3.9841     2.9974     0.0000    -0.0044    14.4503    14.4997    -0.0494     1.7586     0.0000     1.0000    -0.0003     0.9592     0.000
     19    18.0000      1.000    332.000  21257.000      1.101    41.5367    -0.0000  -113.6168   -97.8250    -2.4025    -0.9020    25.0000    20.0000    20.0000    25.0000    30.0000    20.0000    30.0000    -3.9965     0.0020    20.7319    41.4626     3.9841     2.9974     0.0000    -0.0044    14.4503    14.4997    -0.0494     1.7625     0.0000     1.0000    -0.0003     0.9592     0.000
     20    19.0000      1.000    302.000  21324.000      1.105    41.5367    -0.0000  -113.6168   -97.8250    -2.4025    -0.9020    25.0000    20.0000    20.0000    25.0000    30.0000    20.0000    30.0000    -3.9965     0.0020    20.7319    41.4626     3.9841     2.9974     0.0000    -0.0044    14.4503    14.4997    -0.0494     1.7639     0.0000     1.0000    -0.0003     0.9592     0.000
     21    20.0000      1.000    351.000  21160.000      1.096    41.5367    -0.0000  -113.6168   -97.8250    -2.4025    -0.9020    25.0000    20.0000    20.0000    25.0000    30.0000    20.0000    30.0000    -3.9965     0.0020    20.7320    41.4626     3.9841     2.9974     0.0000    -0.0044    14.4503    14.4997    -0.0494     1.7647     0.0000     1.0000    -0.0003     0.9592     0.000
# Sum of Counts = 5504
# Center of Mass = 11.843023+/-0.236223
# Full Width Half-Maximum = 10.318207+/-0.158896
# 2:25:55 PM  2/28/2025   scan completed.
