# scan = 37
# date = 4/17/2024
# time = 3:27:32 PM
# proposal = 32293
# experiment = Splitting of Excitations in a High-Spin Ising Ferromagnet
# experiment_number = 416
# command = scan s2 4.5 2.5 0.5
# builtin_command = scan s2 4.5 2.5 0.5
# users = Aashish Sapkota, Benjamin Ueland, Dhurba Jaishi, Fei Li, Rob McQueeney, Tianxiong Han
# local_contact = Tao Hong and Bing Li
# scan_title = 40 K low Q background scan
# monochromator = PG002
# analyzer = Pg002
# sense = -+-
# collimation = 48-40-40-120
# samplename = powder sample
# sampletype = crystal
# samplemosaic = 30.000000
# latticeconstants = 5.000000,5.000000,5.000000,90.000000,90.000000,90.000000
# ubmatrix = -0.141421,-0.141421,-0.000000,0.000000,0.000000,-0.200000,0.141421,-0.141421,0.000000
# mode = 0
# plane_normal = 0.000000,0.000000,1.000000
# ubconf = UB16Apr2024_93121AM.ini
# preset_type = normal 
# preset_channel = time
# preset_value = 5.000000
# def_x = s2
# def_y = detector
# col_headers = 
#   Pt.         s2       time   detector    monitor        mcu focal_length         m1         m2       marc     mtrans     mfocus         s1        sgl        sgu        bbb        bbl        bbr        bbt        bab        bal        bar        bat        stl        stu         a1         a2     afocus        qm1        qm2        qm3        qm4        qm5        qm6        qm7        qm8        xm1        xm2        xm3        xm4        xm5        xm6        xm7        xm8          q          h          k          l         ei         ef          e        vti     sample       temp dr_tsample    dr_temp
      1     4.5000      5.000     51.000  11852.000      5.387   101.6756   140.5490   -78.9019     0.4200    -1.0000    27.6280    -0.0025     0.0000     0.0000     0.0000     0.0000     0.0000     0.0000    13.0000     4.0000     4.0000    12.0000     0.0000     0.0000   140.5490   -78.9019     3.5000     0.0000     0.0000     0.0000     0.0000     0.0000     0.0000     0.0000     0.0000     0.0000     0.0000     0.0000     0.0000     0.0000     0.0000     0.0000     0.0000     0.1157     0.0651     0.0651     0.0036     4.5000     4.5000     0.0000    40.0018     0.0000    40.0000    39.3440    40.000
      2     4.0000      5.000     57.000  11670.000      5.305   101.6756   140.5490   -78.9019     0.4200    -1.0000    27.6280    -0.0025     0.0000     0.0000     0.0000     0.0000     0.0000     0.0000    13.0000     4.0000     4.0000    12.0000     0.0000     0.0000   140.5490   -78.9019     3.5000     0.0000     0.0000     0.0000     0.0000     0.0000     0.0000     0.0000     0.0000     0.0000     0.0000     0.0000     0.0000     0.0000     0.0000     0.0000     0.0000     0.1029     0.0578     0.0578     0.0029     4.5000     4.5000     0.0000    40.0014     0.0000    40.0000    39.3440    40.000
      3     3.5000      5.000     60.000  11821.000      5.373   101.6756   140.5490   -78.9019     0.4200    -1.0000    27.6280    -0.0025     0.0000     0.0000     0.0000     0.0000     0.0000     0.0000    13.0000     4.0000     4.0000    12.0000     0.0000     0.0000   140.5490   -78.9019     3.5000     0.0000     0.0000     0.0000     0.0000     0.0000     0.0000     0.0000     0.0000     0.0000     0.0000     0.0000     0.0000     0.0000     0.0000     0.0000     0.0000     0.0900     0.0506     0.0506     0.0022     4.5000     4.5000     0.0000    40.0024     0.0000    40.0000    39.3440    40.000
      4     3.0000      5.000     99.000  11853.000      5.388   101.6756   140.5490   -78.9019     0.4200    -1.0000    27.6280    -0.0025     0.0000     0.0000     0.0000     0.0000     0.0000     0.0000    13.0000     4.0000     4.0000    12.0000     0.0000     0.0000   140.5490   -78.9019     3.5000     0.0000     0.0000     0.0000     0.0000     0.0000     0.0000     0.0000     0.0000     0.0000     0.0000     0.0000     0.0000     0.0000     0.0000     0.0000     0.0000     0.0772     0.0434     0.0434     0.0016     4.5000     4.5000     0.0000    40.0018     0.0000    40.0000    39.3440    40.000
      5     2.5000      5.000    434.000  11858.000      5.390   101.6756   140.5490   -78.9019     0.4200    -1.0000    27.6280    -0.0025     0.0000     0.0000     0.0000     0.0000     0.0000     0.0000    13.0000     4.0000     4.0000    12.0000     0.0000     0.0000   140.5490   -78.9019     3.5000     0.0000     0.0000     0.0000     0.0000     0.0000     0.0000     0.0000     0.0000     0.0000     0.0000     0.0000     0.0000     0.0000     0.0000     0.0000     0.0000     0.0643     0.0362     0.0362     0.0011     4.5000     4.5000     0.0000    40.0028     0.0000    40.0000    39.6687    40.000
# Sum of Counts = 701
# Center of Mass = 2.923680+/-0.158052
# Full Width Half-Maximum = 1.288968+/-0.157426
# 3:28:13 PM  4/17/2024   scan completed.
