# scan = 11
# date = 4/16/2024
# time = 12:55:03 PM
# proposal = 32293
# experiment = Splitting of Excitations in a High-Spin Ising Ferromagnet
# experiment_number = 416
# command = scan s2 66 56 0.25 preset time 20
# builtin_command = scan s2 66 56 0.25 preset time 20
# users = Aashish Sapkota, Benjamin Ueland, Dhurba Jaishi, Fei Li, Rob McQueeney, Tianxiong Han
# local_contact = Tao Hong and Bing Li
# scan_title = Bragg peaks (1 0 0) and (0 0 2) cooling
# monochromator = PG002
# analyzer = Pg002
# sense = -+-
# collimation = 48-40-40-120
# samplename = powder sample
# sampletype = crystal
# samplemosaic = 30.000000
# latticeconstants = 5.000000,5.000000,5.000000,90.000000,90.000000,90.000000
# ubmatrix = -0.141421,-0.141421,-0.000000,0.000000,0.000000,-0.200000,0.141421,-0.141421,0.000000
# mode = 0
# plane_normal = 0.000000,0.000000,1.000000
# ubconf = UB16Apr2024_93121AM.ini
# preset_type = normal 
# preset_channel = time
# preset_value = 20.000000
# def_x = s2
# def_y = detector
# col_headers = 
#   Pt.         s2       time   detector    monitor        mcu focal_length         m1         m2       marc     mtrans     mfocus         s1        sgl        sgu        bbb        bbl        bbr        bbt        bab        bal        bar        bat        stl        stu         a1         a2     afocus        qm1        qm2        qm3        qm4        qm5        qm6        qm7        qm8        xm1        xm2        xm3        xm4        xm5        xm6        xm7        xm8          q          h          k          l         ei         ef          e        vti     sample       temp dr_tsample    dr_temp
      1    66.0000     20.000     41.000  44486.000     20.221   115.2889   133.9046   -92.1908     0.4200    -1.0000    25.3800    -0.0100     0.0000     0.0000     0.0000     0.0000     0.0000     0.0000    11.0000     4.0000    15.0000    11.0000     0.0000     0.0000   133.9046   -92.1908     3.5000     0.0000     0.0000     0.0000     0.0000     0.0000     0.0000     0.0000     0.0000     0.0000     0.0000     0.0000     0.0000     0.0000     0.0000     0.0000     0.0000     1.4157     0.6680     0.6680     0.6137     3.5000     3.5000     0.0000    19.9535     0.0000    20.0000    21.6961     0.000
      2    65.7500     20.000     40.000  44367.000     20.167   115.2889   133.9046   -92.1908     0.4200    -1.0000    25.3800    -0.0100     0.0000     0.0000     0.0000     0.0000     0.0000     0.0000    11.0000     4.0000    15.0000    11.0000     0.0000     0.0000   133.9046   -92.1908     3.5000     0.0000     0.0000     0.0000     0.0000     0.0000     0.0000     0.0000     0.0000     0.0000     0.0000     0.0000     0.0000     0.0000     0.0000     0.0000     0.0000     1.4109     0.6667     0.6667     0.6096     3.5000     3.5000     0.0000    19.9601     0.0000    20.0000    21.6961     0.000
      3    65.5000     20.000      0.000      0.000      0.000   115.2889   133.9046   -92.1908     0.4200    -1.0000    25.3800    -0.0100     0.0000     0.0000     0.0000     0.0000     0.0000     0.0000    11.0000     4.0000    15.0000    11.0000     0.0000     0.0000   133.9046   -92.1908     3.5000     0.0000     0.0000     0.0000     0.0000     0.0000     0.0000     0.0000     0.0000     0.0000     0.0000     0.0000     0.0000     0.0000     0.0000     0.0000     0.0000     1.4062     0.6654     0.6654     0.6055     3.5000     3.5000     0.0000    19.9674     0.0000    20.0000    21.6961     0.000
# Sum of Counts = 81
# Center of Mass = 65.876543+/-10.351509
# Full Width Half-Maximum = 0.249981+/-14.638143
# 12:56:07 PM  4/16/2024   scan stopped!!
