# scan = 35
# date = 7/3/2024
# time = 2:41:28 AM
# proposal = 32124
# experiment = Investigation of Spin Waves and Magnetic Interactions in NiTiO3
# experiment_number = 424
# command = scan h 0 k 0 l 2.5+0.9 e 0.1 4 0.1 preset mcu 60
# builtin_command = scan h 0 k 0 l 2.5+0.9 e 0.1 4 0.1 preset mcu 60
# users = Armando Di Biase, John Schneeloch, Despina Louca, Rathnayaka Mudiyanselage Dilan Srimal Rathnayaka
# local_contact = Songxue Chi
# scan_title = 003 scan at Q=[0 0 2.5+0.9]
# monochromator = PG002
# analyzer = Pg002
# sense = -+-
# collimation = 48-40-40-120
# samplename = NiTiO3
# sampletype = crystal
# samplemosaic = 30.000000
# latticeconstants = 5.034785,5.034785,13.812004,90.000000,90.000000,120.000000
# ubmatrix = -0.016965,-0.026212,-0.071913,-0.201388,-0.193307,0.007769,-0.108415,0.120600,-0.003178
# mode = 0
# plane_normal = -0.040320,0.035237,0.998565
# ubconf = UB02Jul2024_34030PM.ini
# preset_type = normal
# preset_channel = mcu
# preset_value = 60.000000
# def_x = e
# def_y = detector
# col_headers =
#   Pt.          h          k          l          e       time   detector    monitor        mcu focal_length         m1         m2       marc     mtrans     mfocus         s1         s2        sgl        sgu        bbb        bbl        bbr        bbt        bab        bal        bar        bat        stl        stu         a1         a2     afocus        qm1        qm2        qm3        qm4        qm5        qm6        qm7        qm8        xm1        xm2        xm3        xm4        xm5        xm6        xm7        xm8          q         ei         ef        vti     sample       temp     temp_2
      1     0.0001     0.0001     3.4000     0.1000     62.317    582.000 144001.000     60.000    97.4378   142.4878   -75.0243     0.4200    -1.0000    28.4560    37.1000    60.7255     2.3108     2.0210     0.0000     0.0000     0.0000     0.0000    24.0000     4.0000    12.0000    22.0000     0.0000     0.0000   142.0306   -75.9388     0.0000     0.0000     0.0000     0.0000     0.0000     0.0000     0.0000     0.0000     0.0000     0.0000     0.0000     0.0000     0.0000     0.0000     0.0000     0.0000     0.0000     1.5467     4.9000     4.8000     1.4456     1.4338     1.0000   120.000
      2     0.0000     0.0000     3.4000     0.2000     65.804    205.000 144001.000     60.000    96.4474   142.9286   -74.1428     0.4200    -1.0000    28.6600    37.4375    60.3774     2.3108     2.0210     0.0000     0.0000     0.0000     0.0000    24.0000     4.0000    12.0000    22.0000     0.0000     0.0000   142.0306   -75.9388     0.0000     0.0000     0.0000     0.0000     0.0000     0.0000     0.0000     0.0000     0.0000     0.0000     0.0000     0.0000     0.0000     0.0000     0.0000     0.0000     0.0000     1.5467     5.0000     4.8000     1.4455     1.4339     1.0000   120.000
      3    -0.0000    -0.0000     3.4000     0.3000     67.629     51.000 144001.000     60.000    95.4958   143.3539   -73.2922     0.4200    -1.0000    28.8600    37.7650    60.0317     2.3108     2.0210     0.0000     0.0000     0.0000     0.0000    24.0000     4.0000    12.0000    22.0000     0.0000     0.0000   142.0306   -75.9388     0.0000     0.0000     0.0000     0.0000     0.0000     0.0000     0.0000     0.0000     0.0000     0.0000     0.0000     0.0000     0.0000     0.0000     0.0000     0.0000     0.0000     1.5467     5.1000     4.8000     1.4454     1.4339     1.0000   120.000
      4     0.0000     0.0000     3.4000     0.4000     65.954      8.000 144001.000     60.000    94.5813   143.7646   -72.4707     0.4200    -1.0000    29.0560    38.0850    59.6884     2.3108     2.0210     0.0000     0.0000     0.0000     0.0000    24.0000     4.0000    12.0000    22.0000     0.0000     0.0000   142.0306   -75.9388     0.0000     0.0000     0.0000     0.0000     0.0000     0.0000     0.0000     0.0000     0.0000     0.0000     0.0000     0.0000     0.0000     0.0000     0.0000     0.0000     0.0000     1.5467     5.2000     4.8000     1.4455     1.4331     1.0000   120.000
      5     0.0000     0.0000     3.4000     0.5000     64.641      1.000 144001.000     60.000    93.6841   144.1616   -71.6767     0.4200    -1.0000    29.2520    38.4075    59.3474     2.3108     2.0210     0.0000     0.0000     0.0000     0.0000    24.0000     4.0000    12.0000    22.0000     0.0000     0.0000   142.0306   -75.9388     0.0000     0.0000     0.0000     0.0000     0.0000     0.0000     0.0000     0.0000     0.0000     0.0000     0.0000     0.0000     0.0000     0.0000     0.0000     0.0000     0.0000     1.5467     5.3000     4.8000     1.4452     1.4326     1.0000   120.000
      6     0.0000     0.0000     3.4000     0.6000     65.856      1.000 144001.000     60.000    92.8037   144.5457   -70.9087     0.4200    -1.0000    29.4480    38.7250    59.0086     2.3108     2.0210     0.0000     0.0000     0.0000     0.0000    24.0000     4.0000    12.0000    22.0000     0.0000     0.0000   142.0306   -75.9388     0.0000     0.0000     0.0000     0.0000     0.0000     0.0000     0.0000     0.0000     0.0000     0.0000     0.0000     0.0000     0.0000     0.0000     0.0000     0.0000     0.0000     1.5467     5.4000     4.8000     1.4451     1.4330     1.0000   120.000
      7     0.0000     0.0000     3.4000     0.7000     65.757      0.000 144001.000     60.000    91.9572   144.9174   -70.1652     0.4200    -1.0000    29.6400    39.0450    58.6718     2.3108     2.0210     0.0000     0.0000     0.0000     0.0000    24.0000     4.0000    12.0000    22.0000     0.0000     0.0000   142.0306   -75.9388     0.0000     0.0000     0.0000     0.0000     0.0000     0.0000     0.0000     0.0000     0.0000     0.0000     0.0000     0.0000     0.0000     0.0000     0.0000     0.0000     0.0000     1.5467     5.5000     4.8000     1.4457     1.4343     1.0000   120.000
      8    -0.0000    -0.0000     3.4000     0.8000     65.264      0.000 144001.000     60.000    91.1432   145.2776   -69.4449     0.4200    -1.0000    29.8280    39.3650    58.3372     2.3108     2.0210     0.0000     0.0000     0.0000     0.0000    24.0000     4.0000    12.0000    22.0000     0.0000     0.0000   142.0306   -75.9388     0.0000     0.0000     0.0000     0.0000     0.0000     0.0000     0.0000     0.0000     0.0000     0.0000     0.0000     0.0000     0.0000     0.0000     0.0000     0.0000     0.0000     1.5467     5.6000     4.8000     1.4451     1.4349     1.0000   120.000
      9     0.0000     0.0000     3.4000     0.9000     63.971      2.000 144001.000     60.000    90.3266   145.6266   -68.7467     0.4200    -1.0000    30.0200    39.6725    58.0044     2.3108     2.0210     0.0000     0.0000     0.0000     0.0000    24.0000     4.0000    12.0000    22.0000     0.0000     0.0000   142.0306   -75.9388     0.0000     0.0000     0.0000     0.0000     0.0000     0.0000     0.0000     0.0000     0.0000     0.0000     0.0000     0.0000     0.0000     0.0000     0.0000     0.0000     0.0000     1.5467     5.7000     4.8000     1.4450     1.4335     1.0000   120.000
     10     0.0001     0.0001     3.4000     1.0000     62.518      3.000 144001.000     60.000    89.5577   145.9653   -68.0694     0.4200    -1.0000    30.2040    39.9825    57.6736     2.3108     2.0210     0.0000     0.0000     0.0000     0.0000    24.0000     4.0000    12.0000    22.0000     0.0000     0.0000   142.0306   -75.9388     0.0000     0.0000     0.0000     0.0000     0.0000     0.0000     0.0000     0.0000     0.0000     0.0000     0.0000     0.0000     0.0000     0.0000     0.0000     0.0000     0.0000     1.5467     5.8000     4.8000     1.4451     1.4346     1.0000   120.000
     11    -0.0000    -0.0000     3.4000     1.1000     61.593      0.000 144001.000     60.000    88.7854   146.2940   -67.4120     0.4200    -1.0000    30.3920    40.3025    57.3445     2.3108     2.0210     0.0000     0.0000     0.0000     0.0000    24.0000     4.0000    12.0000    22.0000     0.0000     0.0000   142.0306   -75.9388     0.0000     0.0000     0.0000     0.0000     0.0000     0.0000     0.0000     0.0000     0.0000     0.0000     0.0000     0.0000     0.0000     0.0000     0.0000     0.0000     0.0000     1.5467     5.9000     4.8000     1.4454     1.4345     1.0000   120.000
     12    -0.0000    -0.0000     3.4000     1.2000     61.904      1.000 144001.000     60.000    88.0424   146.6133   -66.7735     0.4200    -1.0000    30.5760    40.6125    57.0171     2.3108     2.0210     0.0000     0.0000     0.0000     0.0000    24.0000     4.0000    12.0000    22.0000     0.0000     0.0000   142.0306   -75.9388     0.0000     0.0000     0.0000     0.0000     0.0000     0.0000     0.0000     0.0000     0.0000     0.0000     0.0000     0.0000     0.0000     0.0000     0.0000     0.0000     0.0000     1.5467     6.0000     4.8000     1.4453     1.4333     1.0000   120.000
     13    -0.0000    -0.0000     3.4000     1.3000     62.087      2.000 144001.000     60.000    87.3274   146.9235   -66.1530     0.4200    -1.0000    30.7560    40.9225    56.6914     2.3108     2.0210     0.0000     0.0000     0.0000     0.0000    24.0000     4.0000    12.0000    22.0000     0.0000     0.0000   142.0306   -75.9388     0.0000     0.0000     0.0000     0.0000     0.0000     0.0000     0.0000     0.0000     0.0000     0.0000     0.0000     0.0000     0.0000     0.0000     0.0000     0.0000     0.0000     1.5467     6.1000     4.8000     1.4454     1.4332     1.0000   120.000
     14    -0.0000    -0.0000     3.4000     1.4000     63.657      0.000 144001.000     60.000    86.6085   147.2252   -65.5497     0.4200    -1.0000    30.9400    41.2300    56.3673     2.3108     2.0210     0.0000     0.0000     0.0000     0.0000    24.0000     4.0000    12.0000    22.0000     0.0000     0.0000   142.0306   -75.9388     0.0000     0.0000     0.0000     0.0000     0.0000     0.0000     0.0000     0.0000     0.0000     0.0000     0.0000     0.0000     0.0000     0.0000     0.0000     0.0000     0.0000     1.5467     6.2000     4.8000     1.4455     1.4340     1.0000   120.000
     15    -0.0000    -0.0000     3.4000     1.5000     64.972      3.000 144001.000     60.000    85.9166   147.5186   -64.9628     0.4200    -1.0000    31.1200    41.5375    56.0447     2.3108     2.0210     0.0000     0.0000     0.0000     0.0000    24.0000     4.0000    12.0000    22.0000     0.0000     0.0000   142.0306   -75.9388     0.0000     0.0000     0.0000     0.0000     0.0000     0.0000     0.0000     0.0000     0.0000     0.0000     0.0000     0.0000     0.0000     0.0000     0.0000     0.0000     0.0000     1.5467     6.3000     4.8000     1.4456     1.4331     1.0000   120.000
     16    -0.0000    -0.0000     3.4000     1.6000     65.956      8.000 144001.000     60.000    85.2506   147.8042   -64.3915     0.4200    -1.0000    31.2960    41.8450    55.7236     2.3108     2.0210     0.0000     0.0000     0.0000     0.0000    24.0000     4.0000    12.0000    22.0000     0.0000     0.0000   142.0306   -75.9388     0.0000     0.0000     0.0000     0.0000     0.0000     0.0000     0.0000     0.0000     0.0000     0.0000     0.0000     0.0000     0.0000     0.0000     0.0000     0.0000     0.0000     1.5467     6.4000     4.8000     1.4454     1.4352     1.0000   120.000
     17    -0.0000    -0.0000     3.4000     1.7000     66.764      7.000 144001.000     60.000    84.5949   148.0824   -63.8352     0.4200    -1.0000    31.4720    42.1475    55.4038     2.3108     2.0210     0.0000     0.0000     0.0000     0.0000    24.0000     4.0000    12.0000    22.0000     0.0000     0.0000   142.0306   -75.9388     0.0000     0.0000     0.0000     0.0000     0.0000     0.0000     0.0000     0.0000     0.0000     0.0000     0.0000     0.0000     0.0000     0.0000     0.0000     0.0000     0.0000     1.5467     6.5000     4.8000     1.4454     1.4339     1.0000   120.000
     18    -0.0000    -0.0000     3.4000     1.8000     66.928     23.000 144001.000     60.000    83.9492   148.3534   -63.2932     0.4200    -1.0000    31.6480    42.4525    55.0855     2.3108     2.0210     0.0000     0.0000     0.0000     0.0000    24.0000     4.0000    12.0000    22.0000     0.0000     0.0000   142.0306   -75.9388     0.0000     0.0000     0.0000     0.0000     0.0000     0.0000     0.0000     0.0000     0.0000     0.0000     0.0000     0.0000     0.0000     0.0000     0.0000     0.0000     0.0000     1.5467     6.6000     4.8000     1.4455     1.4334     1.0000   120.000
     19    -0.0000    -0.0000     3.4000     1.9000     67.224     33.000 144001.000     60.000    83.3132   148.6175   -62.7649     0.4200    -1.0000    31.8240    42.7550    54.7684     2.3108     2.0210     0.0000     0.0000     0.0000     0.0000    24.0000     4.0000    12.0000    22.0000     0.0000     0.0000   142.0306   -75.9388     0.0000     0.0000     0.0000     0.0000     0.0000     0.0000     0.0000     0.0000     0.0000     0.0000     0.0000     0.0000     0.0000     0.0000     0.0000     0.0000     0.0000     1.5467     6.7000     4.8000     1.4453     1.4327     1.0000   120.000
     20    -0.0000    -0.0000     3.4000     2.0000     68.021     28.000 144001.000     60.000    82.7010   148.8751   -62.2498     0.4200    -1.0000    31.9960    43.0575    54.4525     2.3108     2.0210     0.0000     0.0000     0.0000     0.0000    24.0000     4.0000    12.0000    22.0000     0.0000     0.0000   142.0306   -75.9388     0.0000     0.0000     0.0000     0.0000     0.0000     0.0000     0.0000     0.0000     0.0000     0.0000     0.0000     0.0000     0.0000     0.0000     0.0000     0.0000     0.0000     1.5467     6.8000     4.8000     1.4454     1.4343     1.0000   120.000
     21    -0.0000    -0.0000     3.4000     2.1000     68.830     25.000 144001.000     60.000    82.0977   149.1264   -61.7472     0.4200    -1.0000    32.1680    43.3575    54.1378     2.3108     2.0210     0.0000     0.0000     0.0000     0.0000    24.0000     4.0000    12.0000    22.0000     0.0000     0.0000   142.0306   -75.9388     0.0000     0.0000     0.0000     0.0000     0.0000     0.0000     0.0000     0.0000     0.0000     0.0000     0.0000     0.0000     0.0000     0.0000     0.0000     0.0000     0.0000     1.5467     6.9000     4.8000     1.4448     1.4336     1.0000   120.000
     22    -0.0000    -0.0000     3.4000     2.2000     69.914     17.000 144001.000     60.000    81.5169   149.3716   -61.2567     0.4200    -1.0000    32.3360    43.6550    53.8243     2.3108     2.0210     0.0000     0.0000     0.0000     0.0000    24.0000     4.0000    12.0000    22.0000     0.0000     0.0000   142.0306   -75.9388     0.0000     0.0000     0.0000     0.0000     0.0000     0.0000     0.0000     0.0000     0.0000     0.0000     0.0000     0.0000     0.0000     0.0000     0.0000     0.0000     0.0000     1.5467     7.0000     4.8000     1.4452     1.4331     1.0000   120.000
     23    -0.0000    -0.0000     3.4000     2.3000     70.664      7.000 144001.000     60.000    80.9442   149.6111   -60.7778     0.4200    -1.0000    32.5040    43.9550    53.5118     2.3108     2.0210     0.0000     0.0000     0.0000     0.0000    24.0000     4.0000    12.0000    22.0000     0.0000     0.0000   142.0306   -75.9388     0.0000     0.0000     0.0000     0.0000     0.0000     0.0000     0.0000     0.0000     0.0000     0.0000     0.0000     0.0000     0.0000     0.0000     0.0000     0.0000     0.0000     1.5467     7.1000     4.8000     1.4453     1.4331     1.0000   120.000
     24    -0.0000    -0.0000     3.4000     2.4000     71.762      6.000 144001.000     60.000    80.3795   149.8450   -60.3101     0.4200    -1.0000    32.6720    44.2525    53.2004     2.3108     2.0210     0.0000     0.0000     0.0000     0.0000    24.0000     4.0000    12.0000    22.0000     0.0000     0.0000   142.0306   -75.9388     0.0000     0.0000     0.0000     0.0000     0.0000     0.0000     0.0000     0.0000     0.0000     0.0000     0.0000     0.0000     0.0000     0.0000     0.0000     0.0000     0.0000     1.5467     7.2000     4.8000     1.4453     1.4346     1.0000   120.000
     25    -0.0000    -0.0000     3.4000     2.5000     72.143      2.000 144001.000     60.000    79.8227   150.0735   -59.8530     0.4200    -1.0000    32.8400    44.5500    52.8900     2.3108     2.0210     0.0000     0.0000     0.0000     0.0000    24.0000     4.0000    12.0000    22.0000     0.0000     0.0000   142.0306   -75.9388     0.0000     0.0000     0.0000     0.0000     0.0000     0.0000     0.0000     0.0000     0.0000     0.0000     0.0000     0.0000     0.0000     0.0000     0.0000     0.0000     0.0000     1.5467     7.3000     4.8000     1.4450     1.4334     1.0000   120.000
     26    -0.0000    -0.0000     3.4000     2.6000     72.775      1.000 144001.000     60.000    79.2865   150.2968   -59.4063     0.4200    -1.0000    33.0040    44.8450    52.5804     2.3108     2.0210     0.0000     0.0000     0.0000     0.0000    24.0000     4.0000    12.0000    22.0000     0.0000     0.0000   142.0306   -75.9388     0.0000     0.0000     0.0000     0.0000     0.0000     0.0000     0.0000     0.0000     0.0000     0.0000     0.0000     0.0000     0.0000     0.0000     0.0000     0.0000     0.0000     1.5467     7.4000     4.8000     1.4452     1.4341     1.0000   120.000
     27     0.0000     0.0000     3.4000     2.7000     73.046      2.000 144001.000     60.000    78.7446   150.5152   -58.9695     0.4200    -1.0000    33.1720    45.1400    52.2718     2.3108     2.0210     0.0000     0.0000     0.0000     0.0000    24.0000     4.0000    12.0000    22.0000     0.0000     0.0000   142.0306   -75.9388     0.0000     0.0000     0.0000     0.0000     0.0000     0.0000     0.0000     0.0000     0.0000     0.0000     0.0000     0.0000     0.0000     0.0000     0.0000     0.0000     0.0000     1.5467     7.5000     4.8000     1.4449     1.4327     1.0000   120.000
     28    -0.0000    -0.0000     3.4000     2.8000     73.873      4.000 144001.000     60.000    78.2354   150.7288   -58.5423     0.4200    -1.0000    33.3320    45.4375    51.9641     2.3108     2.0210     0.0000     0.0000     0.0000     0.0000    24.0000     4.0000    12.0000    22.0000     0.0000     0.0000   142.0306   -75.9388     0.0000     0.0000     0.0000     0.0000     0.0000     0.0000     0.0000     0.0000     0.0000     0.0000     0.0000     0.0000     0.0000     0.0000     0.0000     0.0000     0.0000     1.5467     7.6000     4.8000     1.4452     1.4342     1.0000   120.000
     29    -0.0000    -0.0000     3.4000     2.9000     73.816      3.000 144001.000     60.000    77.7202   150.9378   -58.1243     0.4200    -1.0000    33.4960    45.7325    51.6572     2.3108     2.0210     0.0000     0.0000     0.0000     0.0000    24.0000     4.0000    12.0000    22.0000     0.0000     0.0000   142.0306   -75.9388     0.0000     0.0000     0.0000     0.0000     0.0000     0.0000     0.0000     0.0000     0.0000     0.0000     0.0000     0.0000     0.0000     0.0000     0.0000     0.0000     0.0000     1.5467     7.7000     4.8000     1.4450     1.4340     1.0000   120.000
     30    -0.0000    -0.0000     3.4000     3.0000     74.147      3.000 144001.000     60.000    77.2241   151.1424   -57.7152     0.4200    -1.0000    33.6560    46.0250    51.3510     2.3108     2.0210     0.0000     0.0000     0.0000     0.0000    24.0000     4.0000    12.0000    22.0000     0.0000     0.0000   142.0306   -75.9388     0.0000     0.0000     0.0000     0.0000     0.0000     0.0000     0.0000     0.0000     0.0000     0.0000     0.0000     0.0000     0.0000     0.0000     0.0000     0.0000     0.0000     1.5467     7.8000     4.8000     1.4452     1.4332     1.0000   120.000
