# scan = 1
# date = 7/2/2024
# time = 1:47:31 PM
# proposal = 32124
# experiment = Investigation of Spin Waves and Magnetic Interactions in NiTiO3
# experiment_number = 424
# command = scanrel s1 2 -2 .2
# builtin_command = scan s1 @(s1)+2 @(s1)+-2 0.200000
# users = Armando Di Biase, John Schneeloch, Despina Louca, Rathnayaka Mudiyanselage Dilan Srimal Rathnayaka
# local_contact = Songxue Chi
# scan_title = 
# monochromator = PG002
# analyzer = Pg002
# sense = -+-
# collimation = 48-40-40-120
# samplename = NiTiO3
# sampletype = crystal
# samplemosaic = 30.000000
# latticeconstants = 5.044000,5.044000,13.820000,90.000000,90.000000,120.000000
# ubmatrix = -0.198255,-0.198255,0.000000,0.000000,0.000000,-0.072359,0.114463,-0.114463,-0.000000
# mode = 0
# plane_normal = 0.000000,0.000000,1.000000
# ubconf = UB02Jul2024_14125PM.ini
# preset_type = normal 
# preset_channel = mcu
# preset_value = 30.000000
# def_x = s1
# def_y = detector
# col_headers = 
#   Pt.         s1       time   detector    monitor        mcu focal_length         m1         m2       marc     mtrans     mfocus         s2        sgl        sgu        bbb        bbl        bbr        bbt        bab        bal        bar        bat        stl        stu         a1         a2     afocus        qm1        qm2        qm3        qm4        qm5        qm6        qm7        qm8        xm1        xm2        xm3        xm4        xm5        xm6        xm7        xm8          q          h          k          l         ei         ef          e        vti     sample       temp     temp_2
      1    11.3050     30.062   2011.000  72001.000     30.000    98.4288   142.0306   -75.9388     0.4200    -1.0000    28.2560    53.2400     0.0000     0.0000     0.0000     0.0000     0.0000     0.0000    30.0000    26.0000    30.0000    30.0000     0.0000     0.0000   142.0306   -75.9388     0.0000     0.0000     0.0000     0.0000     0.0000     0.0000     0.0000     0.0000     0.0000     0.0000     0.0000     0.0000     0.0000     0.0000     0.0000     0.0000     0.0000     1.3639     0.5280     0.5280     0.7924     4.8000     4.8000     0.0000   115.4440   123.9110     1.0000   120.000
      2    11.1075      0.000      0.000      0.000     30.000    98.4288   142.0306   -75.9388     0.4200    -1.0000    28.2560    53.2400     0.0000     0.0000     0.0000     0.0000     0.0000     0.0000    30.0000    26.0000    30.0000    30.0000     0.0000     0.0000   142.0306   -75.9388     0.0000     0.0000     0.0000     0.0000     0.0000     0.0000     0.0000     0.0000     0.0000     0.0000     0.0000     0.0000     0.0000     0.0000     0.0000     0.0000     0.0000     1.3639     0.5275     0.5275     0.8023     4.8000     4.8000     0.0000   114.3720   122.7720     1.0000   120.000
# Sum of Counts = 2011
# Center of Mass = 11.305000+/-0.356516
# Full Width Half-Maximum = 0.000000+/-NaN
# 1:48:23 PM  7/2/2024   scan stopped!!
